#  E (eV)   dos(E)     Int dos(E) EFermi =   5.935 eV
 -10.000  0.1060E-14  0.1060E-16
  -9.990  0.1183E-14  0.2243E-16
  -9.980  0.1319E-14  0.3562E-16
  -9.970  0.1465E-14  0.5027E-16
  -9.960  0.1628E-14  0.6655E-16
  -9.950  0.1828E-14  0.8483E-16
  -9.940  0.2035E-14  0.1052E-15
  -9.930  0.2273E-14  0.1279E-15
  -9.920  0.2528E-14  0.1532E-15
  -9.910  0.2809E-14  0.1813E-15
  -9.900  0.3128E-14  0.2126E-15
  -9.890  0.3482E-14  0.2474E-15
  -9.880  0.3878E-14  0.2862E-15
  -9.870  0.4308E-14  0.3292E-15
  -9.860  0.4792E-14  0.3772E-15
  -9.850  0.5331E-14  0.4305E-15
  -9.840  0.5927E-14  0.4897E-15
  -9.830  0.6599E-14  0.5557E-15
  -9.820  0.7332E-14  0.6290E-15
  -9.810  0.8156E-14  0.7106E-15
  -9.800  0.9067E-14  0.8013E-15
  -9.790  0.1008E-13  0.9021E-15
  -9.780  0.1120E-13  0.1014E-14
  -9.770  0.1244E-13  0.1138E-14
  -9.760  0.1383E-13  0.1277E-14
  -9.750  0.1537E-13  0.1430E-14
  -9.740  0.1708E-13  0.1601E-14
  -9.730  0.1898E-13  0.1791E-14
  -9.720  0.2109E-13  0.2002E-14
  -9.710  0.2343E-13  0.2236E-14
  -9.700  0.2603E-13  0.2497E-14
  -9.690  0.2893E-13  0.2786E-14
  -9.680  0.3213E-13  0.3107E-14
  -9.670  0.3570E-13  0.3464E-14
  -9.660  0.3966E-13  0.3861E-14
  -9.650  0.4406E-13  0.4301E-14
  -9.640  0.4894E-13  0.4791E-14
  -9.630  0.5437E-13  0.5335E-14
  -9.620  0.6040E-13  0.5939E-14
  -9.610  0.6710E-13  0.6610E-14
  -9.600  0.7454E-13  0.7355E-14
  -9.590  0.8280E-13  0.8183E-14
  -9.580  0.9197E-13  0.9103E-14
  -9.570  0.1022E-12  0.1012E-13
  -9.560  0.1135E-12  0.1126E-13
  -9.550  0.1261E-12  0.1252E-13
  -9.540  0.1400E-12  0.1392E-13
  -9.530  0.1555E-12  0.1548E-13
  -9.520  0.1728E-12  0.1720E-13
  -9.510  0.1919E-12  0.1912E-13
  -9.500  0.2132E-12  0.2125E-13
  -9.490  0.2368E-12  0.2362E-13
  -9.480  0.2630E-12  0.2625E-13
  -9.470  0.2921E-12  0.2917E-13
  -9.460  0.3245E-12  0.3242E-13
  -9.450  0.3604E-12  0.3602E-13
  -9.440  0.4003E-12  0.4002E-13
  -9.430  0.4446E-12  0.4447E-13
  -9.420  0.4939E-12  0.4941E-13
  -9.410  0.5486E-12  0.5490E-13
  -9.400  0.6093E-12  0.6099E-13
  -9.390  0.6768E-12  0.6776E-13
  -9.380  0.7517E-12  0.7527E-13
  -9.370  0.8349E-12  0.8362E-13
  -9.360  0.9274E-12  0.9290E-13
  -9.350  0.1030E-11  0.1032E-12
  -9.340  0.1144E-11  0.1146E-12
  -9.330  0.1271E-11  0.1273E-12
  -9.320  0.1411E-11  0.1415E-12
  -9.310  0.1568E-11  0.1571E-12
  -9.300  0.1741E-11  0.1745E-12
  -9.290  0.1934E-11  0.1939E-12
  -9.280  0.2148E-11  0.2154E-12
  -9.270  0.2386E-11  0.2392E-12
  -9.260  0.2650E-11  0.2657E-12
  -9.250  0.2944E-11  0.2952E-12
  -9.240  0.3270E-11  0.3279E-12
  -9.230  0.3632E-11  0.3642E-12
  -9.220  0.4034E-11  0.4045E-12
  -9.210  0.4480E-11  0.4493E-12
  -9.200  0.4976E-11  0.4991E-12
  -9.190  0.5527E-11  0.5544E-12
  -9.180  0.6139E-11  0.6157E-12
  -9.170  0.6819E-11  0.6839E-12
  -9.160  0.7573E-11  0.7597E-12
  -9.150  0.8412E-11  0.8438E-12
  -9.140  0.9343E-11  0.9372E-12
  -9.130  0.1038E-10  0.1041E-11
  -9.120  0.1153E-10  0.1156E-11
  -9.110  0.1280E-10  0.1284E-11
  -9.100  0.1422E-10  0.1426E-11
  -9.090  0.1579E-10  0.1584E-11
  -9.080  0.1754E-10  0.1760E-11
  -9.070  0.1949E-10  0.1955E-11
  -9.060  0.2164E-10  0.2171E-11
  -9.050  0.2404E-10  0.2412E-11
  -9.040  0.2670E-10  0.2679E-11
  -9.030  0.2966E-10  0.2975E-11
  -9.020  0.3294E-10  0.3304E-11
  -9.010  0.3658E-10  0.3670E-11
  -9.000  0.4064E-10  0.4077E-11
  -8.990  0.4513E-10  0.4528E-11
  -8.980  0.5013E-10  0.5029E-11
  -8.970  0.5568E-10  0.5586E-11
  -8.960  0.6184E-10  0.6205E-11
  -8.950  0.6869E-10  0.6891E-11
  -8.940  0.7630E-10  0.7654E-11
  -8.930  0.8474E-10  0.8502E-11
  -8.920  0.9412E-10  0.9443E-11
  -8.910  0.1045E-09  0.1049E-10
  -8.900  0.1161E-09  0.1165E-10
  -8.890  0.1290E-09  0.1294E-10
  -8.880  0.1433E-09  0.1437E-10
  -8.870  0.1591E-09  0.1596E-10
  -8.860  0.1767E-09  0.1773E-10
  -8.850  0.1963E-09  0.1969E-10
  -8.840  0.2180E-09  0.2187E-10
  -8.830  0.2422E-09  0.2430E-10
  -8.820  0.2690E-09  0.2698E-10
  -8.810  0.2987E-09  0.2997E-10
  -8.800  0.3318E-09  0.3329E-10
  -8.790  0.3686E-09  0.3698E-10
  -8.780  0.4094E-09  0.4107E-10
  -8.770  0.4547E-09  0.4562E-10
  -8.760  0.5050E-09  0.5067E-10
  -8.750  0.5609E-09  0.5628E-10
  -8.740  0.6230E-09  0.6251E-10
  -8.730  0.6920E-09  0.6943E-10
  -8.720  0.7686E-09  0.7711E-10
  -8.710  0.8537E-09  0.8565E-10
  -8.700  0.9482E-09  0.9513E-10
  -8.690  0.1053E-08  0.1057E-09
  -8.680  0.1170E-08  0.1174E-09
  -8.670  0.1299E-08  0.1304E-09
  -8.660  0.1443E-08  0.1448E-09
  -8.650  0.1603E-08  0.1608E-09
  -8.640  0.1780E-08  0.1786E-09
  -8.630  0.1977E-08  0.1984E-09
  -8.620  0.2196E-08  0.2204E-09
  -8.610  0.2440E-08  0.2448E-09
  -8.600  0.2710E-08  0.2718E-09
  -8.590  0.3010E-08  0.3019E-09
  -8.580  0.3343E-08  0.3354E-09
  -8.570  0.3713E-08  0.3725E-09
  -8.560  0.4124E-08  0.4137E-09
  -8.550  0.4580E-08  0.4595E-09
  -8.540  0.5088E-08  0.5104E-09
  -8.530  0.5651E-08  0.5669E-09
  -8.520  0.6276E-08  0.6297E-09
  -8.510  0.6971E-08  0.6994E-09
  -8.500  0.7743E-08  0.7768E-09
  -8.490  0.8600E-08  0.8628E-09
  -8.480  0.9552E-08  0.9584E-09
  -8.470  0.1061E-07  0.1064E-08
  -8.460  0.1178E-07  0.1182E-08
  -8.450  0.1309E-07  0.1313E-08
  -8.440  0.1454E-07  0.1459E-08
  -8.430  0.1615E-07  0.1620E-08
  -8.420  0.1794E-07  0.1799E-08
  -8.410  0.1992E-07  0.1999E-08
  -8.400  0.2213E-07  0.2220E-08
  -8.390  0.2458E-07  0.2466E-08
  -8.380  0.2730E-07  0.2739E-08
  -8.370  0.3032E-07  0.3042E-08
  -8.360  0.3368E-07  0.3379E-08
  -8.350  0.3740E-07  0.3753E-08
  -8.340  0.4154E-07  0.4168E-08
  -8.330  0.4614E-07  0.4629E-08
  -8.320  0.5125E-07  0.5142E-08
  -8.310  0.5693E-07  0.5711E-08
  -8.300  0.6323E-07  0.6343E-08
  -8.290  0.7023E-07  0.7046E-08
  -8.280  0.7800E-07  0.7826E-08
  -8.270  0.8664E-07  0.8692E-08
  -8.260  0.9623E-07  0.9654E-08
  -8.250  0.1069E-06  0.1072E-07
  -8.240  0.1187E-06  0.1191E-07
  -8.230  0.1319E-06  0.1323E-07
  -8.220  0.1465E-06  0.1469E-07
  -8.210  0.1627E-06  0.1632E-07
  -8.200  0.1807E-06  0.1813E-07
  -8.190  0.2007E-06  0.2013E-07
  -8.180  0.2229E-06  0.2236E-07
  -8.170  0.2476E-06  0.2484E-07
  -8.160  0.2750E-06  0.2759E-07
  -8.150  0.3054E-06  0.3064E-07
  -8.140  0.3392E-06  0.3404E-07
  -8.130  0.3768E-06  0.3780E-07
  -8.120  0.4185E-06  0.4199E-07
  -8.110  0.4648E-06  0.4664E-07
  -8.100  0.5163E-06  0.5180E-07
  -8.090  0.5735E-06  0.5753E-07
  -8.080  0.6370E-06  0.6390E-07
  -8.070  0.7075E-06  0.7098E-07
  -8.060  0.7858E-06  0.7884E-07
  -8.050  0.8728E-06  0.8756E-07
  -8.040  0.9694E-06  0.9726E-07
  -8.030  0.1077E-05  0.1080E-06
  -8.020  0.1196E-05  0.1200E-06
  -8.010  0.1328E-05  0.1333E-06
  -8.000  0.1475E-05  0.1480E-06
  -7.990  0.1639E-05  0.1644E-06
  -7.980  0.1820E-05  0.1826E-06
  -7.970  0.2022E-05  0.2028E-06
  -7.960  0.2245E-05  0.2253E-06
  -7.950  0.2494E-05  0.2502E-06
  -7.940  0.2770E-05  0.2779E-06
  -7.930  0.3077E-05  0.3087E-06
  -7.920  0.3417E-05  0.3429E-06
  -7.910  0.3796E-05  0.3808E-06
  -7.900  0.4216E-05  0.4230E-06
  -7.890  0.4683E-05  0.4698E-06
  -7.880  0.5201E-05  0.5218E-06
  -7.870  0.5777E-05  0.5796E-06
  -7.860  0.6416E-05  0.6438E-06
  -7.850  0.7127E-05  0.7150E-06
  -7.840  0.7916E-05  0.7942E-06
  -7.830  0.8792E-05  0.8821E-06
  -7.820  0.9765E-05  0.9798E-06
  -7.810  0.1085E-04  0.1088E-05
  -7.800  0.1205E-04  0.1209E-05
  -7.790  0.1338E-04  0.1342E-05
  -7.780  0.1486E-04  0.1491E-05
  -7.770  0.1651E-04  0.1656E-05
  -7.760  0.1833E-04  0.1840E-05
  -7.750  0.2036E-04  0.2043E-05
  -7.740  0.2262E-04  0.2269E-05
  -7.730  0.2512E-04  0.2521E-05
  -7.720  0.2790E-04  0.2800E-05
  -7.710  0.3099E-04  0.3109E-05
  -7.700  0.3442E-04  0.3454E-05
  -7.690  0.3823E-04  0.3836E-05
  -7.680  0.4246E-04  0.4261E-05
  -7.670  0.4716E-04  0.4732E-05
  -7.660  0.5238E-04  0.5256E-05
  -7.650  0.5818E-04  0.5838E-05
  -7.640  0.6461E-04  0.6484E-05
  -7.630  0.7176E-04  0.7202E-05
  -7.620  0.7971E-04  0.7999E-05
  -7.610  0.8852E-04  0.8884E-05
  -7.600  0.9832E-04  0.9867E-05
  -7.590  0.1092E-03  0.1096E-04
  -7.580  0.1213E-03  0.1217E-04
  -7.570  0.1347E-03  0.1352E-04
  -7.560  0.1496E-03  0.1501E-04
  -7.550  0.1661E-03  0.1668E-04
  -7.540  0.1845E-03  0.1852E-04
  -7.530  0.2049E-03  0.2057E-04
  -7.520  0.2275E-03  0.2285E-04
  -7.510  0.2527E-03  0.2537E-04
  -7.500  0.2806E-03  0.2818E-04
  -7.490  0.3116E-03  0.3129E-04
  -7.480  0.3460E-03  0.3475E-04
  -7.470  0.3842E-03  0.3860E-04
  -7.460  0.4267E-03  0.4286E-04
  -7.450  0.4738E-03  0.4760E-04
  -7.440  0.5260E-03  0.5286E-04
  -7.430  0.5840E-03  0.5870E-04
  -7.420  0.6484E-03  0.6519E-04
  -7.410  0.7199E-03  0.7238E-04
  -7.400  0.7991E-03  0.8038E-04
  -7.390  0.8871E-03  0.8925E-04
  -7.380  0.9847E-03  0.9909E-04
  -7.370  0.1093E-02  0.1100E-03
  -7.360  0.1213E-02  0.1222E-03
  -7.350  0.1346E-02  0.1356E-03
  -7.340  0.1494E-02  0.1505E-03
  -7.330  0.1657E-02  0.1671E-03
  -7.320  0.1838E-02  0.1855E-03
  -7.310  0.2039E-02  0.2059E-03
  -7.300  0.2261E-02  0.2285E-03
  -7.290  0.2508E-02  0.2536E-03
  -7.280  0.2780E-02  0.2814E-03
  -7.270  0.3082E-02  0.3122E-03
  -7.260  0.3415E-02  0.3464E-03
  -7.250  0.3784E-02  0.3842E-03
  -7.240  0.4191E-02  0.4261E-03
  -7.230  0.4641E-02  0.4725E-03
  -7.220  0.5138E-02  0.5239E-03
  -7.210  0.5686E-02  0.5808E-03
  -7.200  0.6289E-02  0.6436E-03
  -7.190  0.6954E-02  0.7132E-03
  -7.180  0.7685E-02  0.7900E-03
  -7.170  0.8489E-02  0.8749E-03
  -7.160  0.9372E-02  0.9686E-03
  -7.150  0.1034E-01  0.1072E-02
  -7.140  0.1140E-01  0.1186E-02
  -7.130  0.1256E-01  0.1312E-02
  -7.120  0.1383E-01  0.1450E-02
  -7.110  0.1521E-01  0.1602E-02
  -7.100  0.1671E-01  0.1769E-02
  -7.090  0.1835E-01  0.1953E-02
  -7.080  0.2012E-01  0.2154E-02
  -7.070  0.2203E-01  0.2374E-02
  -7.060  0.2410E-01  0.2615E-02
  -7.050  0.2633E-01  0.2878E-02
  -7.040  0.2872E-01  0.3166E-02
  -7.030  0.3129E-01  0.3479E-02
  -7.020  0.3403E-01  0.3819E-02
  -7.010  0.3694E-01  0.4188E-02
  -7.000  0.4003E-01  0.4589E-02
  -6.990  0.4331E-01  0.5022E-02
  -6.980  0.4676E-01  0.5489E-02
  -6.970  0.5038E-01  0.5993E-02
  -6.960  0.5418E-01  0.6535E-02
  -6.950  0.5814E-01  0.7116E-02
  -6.940  0.6226E-01  0.7739E-02
  -6.930  0.6652E-01  0.8404E-02
  -6.920  0.7093E-01  0.9113E-02
  -6.910  0.7545E-01  0.9868E-02
  -6.900  0.8010E-01  0.1067E-01
  -6.890  0.8484E-01  0.1152E-01
  -6.880  0.8966E-01  0.1241E-01
  -6.870  0.9456E-01  0.1336E-01
  -6.860  0.9952E-01  0.1435E-01
  -6.850  0.1045E+00  0.1540E-01
  -6.840  0.1096E+00  0.1650E-01
  -6.830  0.1146E+00  0.1764E-01
  -6.820  0.1197E+00  0.1884E-01
  -6.810  0.1247E+00  0.2009E-01
  -6.800  0.1298E+00  0.2138E-01
  -6.790  0.1348E+00  0.2273E-01
  -6.780  0.1398E+00  0.2413E-01
  -6.770  0.1447E+00  0.2557E-01
  -6.760  0.1496E+00  0.2707E-01
  -6.750  0.1544E+00  0.2862E-01
  -6.740  0.1592E+00  0.3021E-01
  -6.730  0.1640E+00  0.3185E-01
  -6.720  0.1687E+00  0.3353E-01
  -6.710  0.1733E+00  0.3527E-01
  -6.700  0.1778E+00  0.3705E-01
  -6.690  0.1823E+00  0.3887E-01
  -6.680  0.1868E+00  0.4074E-01
  -6.670  0.1911E+00  0.4265E-01
  -6.660  0.1954E+00  0.4460E-01
  -6.650  0.1997E+00  0.4660E-01
  -6.640  0.2038E+00  0.4864E-01
  -6.630  0.2079E+00  0.5072E-01
  -6.620  0.2120E+00  0.5284E-01
  -6.610  0.2160E+00  0.5500E-01
  -6.600  0.2199E+00  0.5720E-01
  -6.590  0.2238E+00  0.5943E-01
  -6.580  0.2276E+00  0.6171E-01
  -6.570  0.2314E+00  0.6402E-01
  -6.560  0.2352E+00  0.6638E-01
  -6.550  0.2388E+00  0.6876E-01
  -6.540  0.2425E+00  0.7119E-01
  -6.530  0.2461E+00  0.7365E-01
  -6.520  0.2496E+00  0.7615E-01
  -6.510  0.2531E+00  0.7868E-01
  -6.500  0.2566E+00  0.8124E-01
  -6.490  0.2600E+00  0.8384E-01
  -6.480  0.2634E+00  0.8648E-01
  -6.470  0.2668E+00  0.8915E-01
  -6.460  0.2701E+00  0.9185E-01
  -6.450  0.2734E+00  0.9458E-01
  -6.440  0.2767E+00  0.9735E-01
  -6.430  0.2799E+00  0.1001E+00
  -6.420  0.2831E+00  0.1030E+00
  -6.410  0.2863E+00  0.1058E+00
  -6.400  0.2894E+00  0.1087E+00
  -6.390  0.2926E+00  0.1117E+00
  -6.380  0.2957E+00  0.1146E+00
  -6.370  0.2987E+00  0.1176E+00
  -6.360  0.3018E+00  0.1206E+00
  -6.350  0.3048E+00  0.1237E+00
  -6.340  0.3079E+00  0.1267E+00
  -6.330  0.3109E+00  0.1299E+00
  -6.320  0.3138E+00  0.1330E+00
  -6.310  0.3168E+00  0.1362E+00
  -6.300  0.3197E+00  0.1394E+00
  -6.290  0.3227E+00  0.1426E+00
  -6.280  0.3256E+00  0.1458E+00
  -6.270  0.3285E+00  0.1491E+00
  -6.260  0.3314E+00  0.1524E+00
  -6.250  0.3342E+00  0.1558E+00
  -6.240  0.3371E+00  0.1592E+00
  -6.230  0.3399E+00  0.1626E+00
  -6.220  0.3428E+00  0.1660E+00
  -6.210  0.3456E+00  0.1694E+00
  -6.200  0.3484E+00  0.1729E+00
  -6.190  0.3512E+00  0.1764E+00
  -6.180  0.3540E+00  0.1800E+00
  -6.170  0.3568E+00  0.1835E+00
  -6.160  0.3596E+00  0.1871E+00
  -6.150  0.3624E+00  0.1908E+00
  -6.140  0.3651E+00  0.1944E+00
  -6.130  0.3679E+00  0.1981E+00
  -6.120  0.3706E+00  0.2018E+00
  -6.110  0.3734E+00  0.2055E+00
  -6.100  0.3761E+00  0.2093E+00
  -6.090  0.3788E+00  0.2131E+00
  -6.080  0.3816E+00  0.2169E+00
  -6.070  0.3843E+00  0.2207E+00
  -6.060  0.3870E+00  0.2246E+00
  -6.050  0.3897E+00  0.2285E+00
  -6.040  0.3924E+00  0.2324E+00
  -6.030  0.3951E+00  0.2364E+00
  -6.020  0.3978E+00  0.2404E+00
  -6.010  0.4005E+00  0.2444E+00
  -6.000  0.4032E+00  0.2484E+00
  -5.990  0.4059E+00  0.2525E+00
  -5.980  0.4086E+00  0.2565E+00
  -5.970  0.4113E+00  0.2607E+00
  -5.960  0.4140E+00  0.2648E+00
  -5.950  0.4167E+00  0.2690E+00
  -5.940  0.4195E+00  0.2732E+00
  -5.930  0.4222E+00  0.2774E+00
  -5.920  0.4249E+00  0.2816E+00
  -5.910  0.4276E+00  0.2859E+00
  -5.900  0.4303E+00  0.2902E+00
  -5.890  0.4330E+00  0.2945E+00
  -5.880  0.4357E+00  0.2989E+00
  -5.870  0.4384E+00  0.3033E+00
  -5.860  0.4411E+00  0.3077E+00
  -5.850  0.4439E+00  0.3121E+00
  -5.840  0.4466E+00  0.3166E+00
  -5.830  0.4493E+00  0.3211E+00
  -5.820  0.4521E+00  0.3256E+00
  -5.810  0.4548E+00  0.3302E+00
  -5.800  0.4576E+00  0.3347E+00
  -5.790  0.4603E+00  0.3393E+00
  -5.780  0.4631E+00  0.3440E+00
  -5.770  0.4659E+00  0.3486E+00
  -5.760  0.4686E+00  0.3533E+00
  -5.750  0.4714E+00  0.3580E+00
  -5.740  0.4742E+00  0.3628E+00
  -5.730  0.4771E+00  0.3675E+00
  -5.720  0.4799E+00  0.3723E+00
  -5.710  0.4827E+00  0.3772E+00
  -5.700  0.4855E+00  0.3820E+00
  -5.690  0.4884E+00  0.3869E+00
  -5.680  0.4912E+00  0.3918E+00
  -5.670  0.4941E+00  0.3968E+00
  -5.660  0.4970E+00  0.4017E+00
  -5.650  0.4999E+00  0.4067E+00
  -5.640  0.5028E+00  0.4118E+00
  -5.630  0.5058E+00  0.4168E+00
  -5.620  0.5087E+00  0.4219E+00
  -5.610  0.5117E+00  0.4270E+00
  -5.600  0.5147E+00  0.4322E+00
  -5.590  0.5177E+00  0.4373E+00
  -5.580  0.5208E+00  0.4426E+00
  -5.570  0.5238E+00  0.4478E+00
  -5.560  0.5269E+00  0.4531E+00
  -5.550  0.5300E+00  0.4584E+00
  -5.540  0.5331E+00  0.4637E+00
  -5.530  0.5362E+00  0.4691E+00
  -5.520  0.5394E+00  0.4744E+00
  -5.510  0.5426E+00  0.4799E+00
  -5.500  0.5458E+00  0.4853E+00
  -5.490  0.5490E+00  0.4908E+00
  -5.480  0.5523E+00  0.4963E+00
  -5.470  0.5556E+00  0.5019E+00
  -5.460  0.5589E+00  0.5075E+00
  -5.450  0.5623E+00  0.5131E+00
  -5.440  0.5658E+00  0.5188E+00
  -5.430  0.5692E+00  0.5245E+00
  -5.420  0.5727E+00  0.5302E+00
  -5.410  0.5763E+00  0.5359E+00
  -5.400  0.5798E+00  0.5417E+00
  -5.390  0.5834E+00  0.5476E+00
  -5.380  0.5871E+00  0.5535E+00
  -5.370  0.5908E+00  0.5594E+00
  -5.360  0.5946E+00  0.5653E+00
  -5.350  0.5984E+00  0.5713E+00
  -5.340  0.6022E+00  0.5773E+00
  -5.330  0.6061E+00  0.5834E+00
  -5.320  0.6101E+00  0.5895E+00
  -5.310  0.6141E+00  0.5956E+00
  -5.300  0.6182E+00  0.6018E+00
  -5.290  0.6224E+00  0.6080E+00
  -5.280  0.6267E+00  0.6143E+00
  -5.270  0.6310E+00  0.6206E+00
  -5.260  0.6354E+00  0.6270E+00
  -5.250  0.6399E+00  0.6334E+00
  -5.240  0.6445E+00  0.6398E+00
  -5.230  0.6492E+00  0.6463E+00
  -5.220  0.6539E+00  0.6528E+00
  -5.210  0.6587E+00  0.6594E+00
  -5.200  0.6636E+00  0.6661E+00
  -5.190  0.6686E+00  0.6727E+00
  -5.180  0.6737E+00  0.6795E+00
  -5.170  0.6790E+00  0.6863E+00
  -5.160  0.6843E+00  0.6931E+00
  -5.150  0.6897E+00  0.7000E+00
  -5.140  0.6952E+00  0.7070E+00
  -5.130  0.7008E+00  0.7140E+00
  -5.120  0.7066E+00  0.7210E+00
  -5.110  0.7125E+00  0.7282E+00
  -5.100  0.7185E+00  0.7353E+00
  -5.090  0.7246E+00  0.7426E+00
  -5.080  0.7308E+00  0.7499E+00
  -5.070  0.7371E+00  0.7573E+00
  -5.060  0.7435E+00  0.7647E+00
  -5.050  0.7500E+00  0.7722E+00
  -5.040  0.7566E+00  0.7798E+00
  -5.030  0.7632E+00  0.7874E+00
  -5.020  0.7699E+00  0.7951E+00
  -5.010  0.7767E+00  0.8029E+00
  -5.000  0.7834E+00  0.8107E+00
  -4.990  0.7902E+00  0.8186E+00
  -4.980  0.7969E+00  0.8266E+00
  -4.970  0.8037E+00  0.8346E+00
  -4.960  0.8103E+00  0.8427E+00
  -4.950  0.8169E+00  0.8509E+00
  -4.940  0.8234E+00  0.8591E+00
  -4.930  0.8298E+00  0.8674E+00
  -4.920  0.8361E+00  0.8758E+00
  -4.910  0.8421E+00  0.8842E+00
  -4.900  0.8480E+00  0.8927E+00
  -4.890  0.8536E+00  0.9012E+00
  -4.880  0.8589E+00  0.9098E+00
  -4.870  0.8640E+00  0.9184E+00
  -4.860  0.8687E+00  0.9271E+00
  -4.850  0.8731E+00  0.9359E+00
  -4.840  0.8772E+00  0.9446E+00
  -4.830  0.8808E+00  0.9534E+00
  -4.820  0.8841E+00  0.9623E+00
  -4.810  0.8870E+00  0.9712E+00
  -4.800  0.8896E+00  0.9800E+00
  -4.790  0.8917E+00  0.9890E+00
  -4.780  0.8935E+00  0.9979E+00
  -4.770  0.8949E+00  0.1007E+01
  -4.760  0.8960E+00  0.1016E+01
  -4.750  0.8968E+00  0.1025E+01
  -4.740  0.8972E+00  0.1034E+01
  -4.730  0.8973E+00  0.1043E+01
  -4.720  0.8970E+00  0.1052E+01
  -4.710  0.8965E+00  0.1061E+01
  -4.700  0.8958E+00  0.1070E+01
  -4.690  0.8947E+00  0.1079E+01
  -4.680  0.8934E+00  0.1087E+01
  -4.670  0.8919E+00  0.1096E+01
  -4.660  0.8901E+00  0.1105E+01
  -4.650  0.8882E+00  0.1114E+01
  -4.640  0.8860E+00  0.1123E+01
  -4.630  0.8837E+00  0.1132E+01
  -4.620  0.8812E+00  0.1141E+01
  -4.610  0.8786E+00  0.1149E+01
  -4.600  0.8758E+00  0.1158E+01
  -4.590  0.8730E+00  0.1167E+01
  -4.580  0.8700E+00  0.1176E+01
  -4.570  0.8669E+00  0.1184E+01
  -4.560  0.8638E+00  0.1193E+01
  -4.550  0.8606E+00  0.1202E+01
  -4.540  0.8573E+00  0.1210E+01
  -4.530  0.8539E+00  0.1219E+01
  -4.520  0.8505E+00  0.1227E+01
  -4.510  0.8470E+00  0.1236E+01
  -4.500  0.8435E+00  0.1244E+01
  -4.490  0.8399E+00  0.1253E+01
  -4.480  0.8363E+00  0.1261E+01
  -4.470  0.8326E+00  0.1269E+01
  -4.460  0.8288E+00  0.1277E+01
  -4.450  0.8251E+00  0.1286E+01
  -4.440  0.8213E+00  0.1294E+01
  -4.430  0.8174E+00  0.1302E+01
  -4.420  0.8136E+00  0.1310E+01
  -4.410  0.8097E+00  0.1318E+01
  -4.400  0.8059E+00  0.1326E+01
  -4.390  0.8020E+00  0.1334E+01
  -4.380  0.7981E+00  0.1342E+01
  -4.370  0.7942E+00  0.1350E+01
  -4.360  0.7903E+00  0.1358E+01
  -4.350  0.7863E+00  0.1366E+01
  -4.340  0.7824E+00  0.1374E+01
  -4.330  0.7784E+00  0.1382E+01
  -4.320  0.7744E+00  0.1389E+01
  -4.310  0.7704E+00  0.1397E+01
  -4.300  0.7664E+00  0.1405E+01
  -4.290  0.7624E+00  0.1412E+01
  -4.280  0.7583E+00  0.1420E+01
  -4.270  0.7543E+00  0.1428E+01
  -4.260  0.7502E+00  0.1435E+01
  -4.250  0.7462E+00  0.1443E+01
  -4.240  0.7421E+00  0.1450E+01
  -4.230  0.7380E+00  0.1457E+01
  -4.220  0.7340E+00  0.1465E+01
  -4.210  0.7299E+00  0.1472E+01
  -4.200  0.7258E+00  0.1479E+01
  -4.190  0.7217E+00  0.1486E+01
  -4.180  0.7176E+00  0.1494E+01
  -4.170  0.7135E+00  0.1501E+01
  -4.160  0.7094E+00  0.1508E+01
  -4.150  0.7053E+00  0.1515E+01
  -4.140  0.7011E+00  0.1522E+01
  -4.130  0.6970E+00  0.1529E+01
  -4.120  0.6928E+00  0.1536E+01
  -4.110  0.6886E+00  0.1543E+01
  -4.100  0.6844E+00  0.1550E+01
  -4.090  0.6803E+00  0.1556E+01
  -4.080  0.6761E+00  0.1563E+01
  -4.070  0.6718E+00  0.1570E+01
  -4.060  0.6676E+00  0.1577E+01
  -4.050  0.6634E+00  0.1583E+01
  -4.040  0.6592E+00  0.1590E+01
  -4.030  0.6550E+00  0.1596E+01
  -4.020  0.6507E+00  0.1603E+01
  -4.010  0.6465E+00  0.1609E+01
  -4.000  0.6422E+00  0.1616E+01
  -3.990  0.6379E+00  0.1622E+01
  -3.980  0.6336E+00  0.1628E+01
  -3.970  0.6293E+00  0.1635E+01
  -3.960  0.6250E+00  0.1641E+01
  -3.950  0.6206E+00  0.1647E+01
  -3.940  0.6163E+00  0.1653E+01
  -3.930  0.6119E+00  0.1659E+01
  -3.920  0.6075E+00  0.1666E+01
  -3.910  0.6031E+00  0.1672E+01
  -3.900  0.5987E+00  0.1678E+01
  -3.890  0.5943E+00  0.1683E+01
  -3.880  0.5898E+00  0.1689E+01
  -3.870  0.5854E+00  0.1695E+01
  -3.860  0.5809E+00  0.1701E+01
  -3.850  0.5764E+00  0.1707E+01
  -3.840  0.5719E+00  0.1713E+01
  -3.830  0.5674E+00  0.1718E+01
  -3.820  0.5629E+00  0.1724E+01
  -3.810  0.5583E+00  0.1729E+01
  -3.800  0.5537E+00  0.1735E+01
  -3.790  0.5491E+00  0.1740E+01
  -3.780  0.5445E+00  0.1746E+01
  -3.770  0.5398E+00  0.1751E+01
  -3.760  0.5351E+00  0.1757E+01
  -3.750  0.5304E+00  0.1762E+01
  -3.740  0.5256E+00  0.1767E+01
  -3.730  0.5208E+00  0.1772E+01
  -3.720  0.5161E+00  0.1778E+01
  -3.710  0.5113E+00  0.1783E+01
  -3.700  0.5064E+00  0.1788E+01
  -3.690  0.5016E+00  0.1793E+01
  -3.680  0.4967E+00  0.1798E+01
  -3.670  0.4918E+00  0.1803E+01
  -3.660  0.4869E+00  0.1808E+01
  -3.650  0.4819E+00  0.1812E+01
  -3.640  0.4769E+00  0.1817E+01
  -3.630  0.4718E+00  0.1822E+01
  -3.620  0.4667E+00  0.1826E+01
  -3.610  0.4616E+00  0.1831E+01
  -3.600  0.4564E+00  0.1836E+01
  -3.590  0.4511E+00  0.1840E+01
  -3.580  0.4458E+00  0.1845E+01
  -3.570  0.4405E+00  0.1849E+01
  -3.560  0.4352E+00  0.1853E+01
  -3.550  0.4298E+00  0.1858E+01
  -3.540  0.4244E+00  0.1862E+01
  -3.530  0.4189E+00  0.1866E+01
  -3.520  0.4134E+00  0.1870E+01
  -3.510  0.4079E+00  0.1874E+01
  -3.500  0.4023E+00  0.1878E+01
  -3.490  0.3966E+00  0.1882E+01
  -3.480  0.3910E+00  0.1886E+01
  -3.470  0.3852E+00  0.1890E+01
  -3.460  0.3794E+00  0.1894E+01
  -3.450  0.3736E+00  0.1898E+01
  -3.440  0.3676E+00  0.1901E+01
  -3.430  0.3617E+00  0.1905E+01
  -3.420  0.3556E+00  0.1908E+01
  -3.410  0.3495E+00  0.1912E+01
  -3.400  0.3434E+00  0.1915E+01
  -3.390  0.3371E+00  0.1919E+01
  -3.380  0.3309E+00  0.1922E+01
  -3.370  0.3246E+00  0.1925E+01
  -3.360  0.3183E+00  0.1929E+01
  -3.350  0.3119E+00  0.1932E+01
  -3.340  0.3055E+00  0.1935E+01
  -3.330  0.2991E+00  0.1938E+01
  -3.320  0.2926E+00  0.1941E+01
  -3.310  0.2861E+00  0.1943E+01
  -3.300  0.2796E+00  0.1946E+01
  -3.290  0.2731E+00  0.1949E+01
  -3.280  0.2666E+00  0.1952E+01
  -3.270  0.2601E+00  0.1954E+01
  -3.260  0.2536E+00  0.1957E+01
  -3.250  0.2471E+00  0.1959E+01
  -3.240  0.2406E+00  0.1962E+01
  -3.230  0.2342E+00  0.1964E+01
  -3.220  0.2279E+00  0.1966E+01
  -3.210  0.2216E+00  0.1969E+01
  -3.200  0.2155E+00  0.1971E+01
  -3.190  0.2095E+00  0.1973E+01
  -3.180  0.2036E+00  0.1975E+01
  -3.170  0.1979E+00  0.1977E+01
  -3.160  0.1924E+00  0.1979E+01
  -3.150  0.1871E+00  0.1981E+01
  -3.140  0.1821E+00  0.1982E+01
  -3.130  0.1774E+00  0.1984E+01
  -3.120  0.1729E+00  0.1986E+01
  -3.110  0.1688E+00  0.1988E+01
  -3.100  0.1650E+00  0.1989E+01
  -3.090  0.1616E+00  0.1991E+01
  -3.080  0.1585E+00  0.1992E+01
  -3.070  0.1558E+00  0.1994E+01
  -3.060  0.1536E+00  0.1996E+01
  -3.050  0.1517E+00  0.1997E+01
  -3.040  0.1502E+00  0.1999E+01
  -3.030  0.1492E+00  0.2000E+01
  -3.020  0.1486E+00  0.2002E+01
  -3.010  0.1484E+00  0.2003E+01
  -3.000  0.1486E+00  0.2004E+01
  -2.990  0.1493E+00  0.2006E+01
  -2.980  0.1504E+00  0.2007E+01
  -2.970  0.1518E+00  0.2009E+01
  -2.960  0.1537E+00  0.2011E+01
  -2.950  0.1560E+00  0.2012E+01
  -2.940  0.1586E+00  0.2014E+01
  -2.930  0.1616E+00  0.2015E+01
  -2.920  0.1649E+00  0.2017E+01
  -2.910  0.1685E+00  0.2019E+01
  -2.900  0.1724E+00  0.2020E+01
  -2.890  0.1766E+00  0.2022E+01
  -2.880  0.1809E+00  0.2024E+01
  -2.870  0.1855E+00  0.2026E+01
  -2.860  0.1903E+00  0.2028E+01
  -2.850  0.1952E+00  0.2030E+01
  -2.840  0.2002E+00  0.2032E+01
  -2.830  0.2054E+00  0.2034E+01
  -2.820  0.2107E+00  0.2036E+01
  -2.810  0.2160E+00  0.2038E+01
  -2.800  0.2215E+00  0.2040E+01
  -2.790  0.2270E+00  0.2042E+01
  -2.780  0.2326E+00  0.2045E+01
  -2.770  0.2383E+00  0.2047E+01
  -2.760  0.2440E+00  0.2050E+01
  -2.750  0.2498E+00  0.2052E+01
  -2.740  0.2556E+00  0.2055E+01
  -2.730  0.2615E+00  0.2057E+01
  -2.720  0.2673E+00  0.2060E+01
  -2.710  0.2733E+00  0.2063E+01
  -2.700  0.2792E+00  0.2065E+01
  -2.690  0.2851E+00  0.2068E+01
  -2.680  0.2910E+00  0.2071E+01
  -2.670  0.2969E+00  0.2074E+01
  -2.660  0.3028E+00  0.2077E+01
  -2.650  0.3086E+00  0.2080E+01
  -2.640  0.3144E+00  0.2083E+01
  -2.630  0.3201E+00  0.2087E+01
  -2.620  0.3258E+00  0.2090E+01
  -2.610  0.3315E+00  0.2093E+01
  -2.600  0.3371E+00  0.2097E+01
  -2.590  0.3428E+00  0.2100E+01
  -2.580  0.3484E+00  0.2104E+01
  -2.570  0.3540E+00  0.2107E+01
  -2.560  0.3597E+00  0.2111E+01
  -2.550  0.3653E+00  0.2114E+01
  -2.540  0.3710E+00  0.2118E+01
  -2.530  0.3767E+00  0.2122E+01
  -2.520  0.3824E+00  0.2126E+01
  -2.510  0.3880E+00  0.2129E+01
  -2.500  0.3937E+00  0.2133E+01
  -2.490  0.3994E+00  0.2137E+01
  -2.480  0.4051E+00  0.2141E+01
  -2.470  0.4107E+00  0.2146E+01
  -2.460  0.4164E+00  0.2150E+01
  -2.450  0.4220E+00  0.2154E+01
  -2.440  0.4275E+00  0.2158E+01
  -2.430  0.4331E+00  0.2163E+01
  -2.420  0.4386E+00  0.2167E+01
  -2.410  0.4442E+00  0.2171E+01
  -2.400  0.4498E+00  0.2176E+01
  -2.390  0.4554E+00  0.2180E+01
  -2.380  0.4610E+00  0.2185E+01
  -2.370  0.4667E+00  0.2190E+01
  -2.360  0.4725E+00  0.2194E+01
  -2.350  0.4783E+00  0.2199E+01
  -2.340  0.4842E+00  0.2204E+01
  -2.330  0.4902E+00  0.2209E+01
  -2.320  0.4962E+00  0.2214E+01
  -2.310  0.5023E+00  0.2219E+01
  -2.300  0.5085E+00  0.2224E+01
  -2.290  0.5148E+00  0.2229E+01
  -2.280  0.5211E+00  0.2234E+01
  -2.270  0.5274E+00  0.2240E+01
  -2.260  0.5338E+00  0.2245E+01
  -2.250  0.5403E+00  0.2250E+01
  -2.240  0.5469E+00  0.2256E+01
  -2.230  0.5536E+00  0.2261E+01
  -2.220  0.5603E+00  0.2267E+01
  -2.210  0.5672E+00  0.2273E+01
  -2.200  0.5742E+00  0.2278E+01
  -2.190  0.5813E+00  0.2284E+01
  -2.180  0.5887E+00  0.2290E+01
  -2.170  0.5962E+00  0.2296E+01
  -2.160  0.6039E+00  0.2302E+01
  -2.150  0.6118E+00  0.2308E+01
  -2.140  0.6199E+00  0.2314E+01
  -2.130  0.6283E+00  0.2321E+01
  -2.120  0.6369E+00  0.2327E+01
  -2.110  0.6457E+00  0.2334E+01
  -2.100  0.6548E+00  0.2340E+01
  -2.090  0.6642E+00  0.2347E+01
  -2.080  0.6737E+00  0.2353E+01
  -2.070  0.6836E+00  0.2360E+01
  -2.060  0.6937E+00  0.2367E+01
  -2.050  0.7041E+00  0.2374E+01
  -2.040  0.7148E+00  0.2381E+01
  -2.030  0.7257E+00  0.2389E+01
  -2.020  0.7369E+00  0.2396E+01
  -2.010  0.7485E+00  0.2404E+01
  -2.000  0.7603E+00  0.2411E+01
  -1.990  0.7725E+00  0.2419E+01
  -1.980  0.7849E+00  0.2427E+01
  -1.970  0.7976E+00  0.2435E+01
  -1.960  0.8106E+00  0.2443E+01
  -1.950  0.8239E+00  0.2451E+01
  -1.940  0.8374E+00  0.2459E+01
  -1.930  0.8510E+00  0.2468E+01
  -1.920  0.8648E+00  0.2477E+01
  -1.910  0.8786E+00  0.2485E+01
  -1.900  0.8924E+00  0.2494E+01
  -1.890  0.9061E+00  0.2503E+01
  -1.880  0.9197E+00  0.2513E+01
  -1.870  0.9329E+00  0.2522E+01
  -1.860  0.9458E+00  0.2531E+01
  -1.850  0.9581E+00  0.2541E+01
  -1.840  0.9699E+00  0.2551E+01
  -1.830  0.9810E+00  0.2560E+01
  -1.820  0.9913E+00  0.2570E+01
  -1.810  0.1001E+01  0.2580E+01
  -1.800  0.1009E+01  0.2590E+01
  -1.790  0.1016E+01  0.2601E+01
  -1.780  0.1022E+01  0.2611E+01
  -1.770  0.1027E+01  0.2621E+01
  -1.760  0.1031E+01  0.2631E+01
  -1.750  0.1033E+01  0.2642E+01
  -1.740  0.1034E+01  0.2652E+01
  -1.730  0.1034E+01  0.2662E+01
  -1.720  0.1032E+01  0.2673E+01
  -1.710  0.1029E+01  0.2683E+01
  -1.700  0.1025E+01  0.2693E+01
  -1.690  0.1020E+01  0.2703E+01
  -1.680  0.1014E+01  0.2714E+01
  -1.670  0.1006E+01  0.2724E+01
  -1.660  0.9984E+00  0.2734E+01
  -1.650  0.9895E+00  0.2744E+01
  -1.640  0.9799E+00  0.2753E+01
  -1.630  0.9698E+00  0.2763E+01
  -1.620  0.9592E+00  0.2773E+01
  -1.610  0.9481E+00  0.2782E+01
  -1.600  0.9368E+00  0.2791E+01
  -1.590  0.9252E+00  0.2801E+01
  -1.580  0.9135E+00  0.2810E+01
  -1.570  0.9017E+00  0.2819E+01
  -1.560  0.8899E+00  0.2828E+01
  -1.550  0.8780E+00  0.2837E+01
  -1.540  0.8663E+00  0.2845E+01
  -1.530  0.8547E+00  0.2854E+01
  -1.520  0.8432E+00  0.2862E+01
  -1.510  0.8319E+00  0.2871E+01
  -1.500  0.8207E+00  0.2879E+01
  -1.490  0.8098E+00  0.2887E+01
  -1.480  0.7991E+00  0.2895E+01
  -1.470  0.7886E+00  0.2903E+01
  -1.460  0.7784E+00  0.2911E+01
  -1.450  0.7684E+00  0.2918E+01
  -1.440  0.7586E+00  0.2926E+01
  -1.430  0.7491E+00  0.2933E+01
  -1.420  0.7398E+00  0.2941E+01
  -1.410  0.7308E+00  0.2948E+01
  -1.400  0.7220E+00  0.2955E+01
  -1.390  0.7134E+00  0.2962E+01
  -1.380  0.7051E+00  0.2969E+01
  -1.370  0.6970E+00  0.2976E+01
  -1.360  0.6891E+00  0.2983E+01
  -1.350  0.6814E+00  0.2990E+01
  -1.340  0.6740E+00  0.2997E+01
  -1.330  0.6667E+00  0.3003E+01
  -1.320  0.6596E+00  0.3010E+01
  -1.310  0.6527E+00  0.3017E+01
  -1.300  0.6460E+00  0.3023E+01
  -1.290  0.6394E+00  0.3029E+01
  -1.280  0.6330E+00  0.3036E+01
  -1.270  0.6267E+00  0.3042E+01
  -1.260  0.6206E+00  0.3048E+01
  -1.250  0.6147E+00  0.3054E+01
  -1.240  0.6089E+00  0.3060E+01
  -1.230  0.6032E+00  0.3067E+01
  -1.220  0.5976E+00  0.3072E+01
  -1.210  0.5921E+00  0.3078E+01
  -1.200  0.5868E+00  0.3084E+01
  -1.190  0.5816E+00  0.3090E+01
  -1.180  0.5765E+00  0.3096E+01
  -1.170  0.5715E+00  0.3102E+01
  -1.160  0.5666E+00  0.3107E+01
  -1.150  0.5618E+00  0.3113E+01
  -1.140  0.5571E+00  0.3118E+01
  -1.130  0.5525E+00  0.3124E+01
  -1.120  0.5480E+00  0.3129E+01
  -1.110  0.5436E+00  0.3135E+01
  -1.100  0.5393E+00  0.3140E+01
  -1.090  0.5350E+00  0.3146E+01
  -1.080  0.5309E+00  0.3151E+01
  -1.070  0.5267E+00  0.3156E+01
  -1.060  0.5227E+00  0.3161E+01
  -1.050  0.5187E+00  0.3167E+01
  -1.040  0.5148E+00  0.3172E+01
  -1.030  0.5109E+00  0.3177E+01
  -1.020  0.5071E+00  0.3182E+01
  -1.010  0.5033E+00  0.3187E+01
  -1.000  0.4996E+00  0.3192E+01
  -0.990  0.4959E+00  0.3197E+01
  -0.980  0.4923E+00  0.3202E+01
  -0.970  0.4888E+00  0.3207E+01
  -0.960  0.4852E+00  0.3212E+01
  -0.950  0.4818E+00  0.3216E+01
  -0.940  0.4783E+00  0.3221E+01
  -0.930  0.4750E+00  0.3226E+01
  -0.920  0.4717E+00  0.3231E+01
  -0.910  0.4684E+00  0.3235E+01
  -0.900  0.4652E+00  0.3240E+01
  -0.890  0.4620E+00  0.3245E+01
  -0.880  0.4589E+00  0.3249E+01
  -0.870  0.4558E+00  0.3254E+01
  -0.860  0.4528E+00  0.3258E+01
  -0.850  0.4498E+00  0.3263E+01
  -0.840  0.4469E+00  0.3267E+01
  -0.830  0.4439E+00  0.3272E+01
  -0.820  0.4411E+00  0.3276E+01
  -0.810  0.4382E+00  0.3280E+01
  -0.800  0.4354E+00  0.3285E+01
  -0.790  0.4326E+00  0.3289E+01
  -0.780  0.4298E+00  0.3293E+01
  -0.770  0.4271E+00  0.3298E+01
  -0.760  0.4243E+00  0.3302E+01
  -0.750  0.4216E+00  0.3306E+01
  -0.740  0.4189E+00  0.3310E+01
  -0.730  0.4162E+00  0.3315E+01
  -0.720  0.4135E+00  0.3319E+01
  -0.710  0.4109E+00  0.3323E+01
  -0.700  0.4082E+00  0.3327E+01
  -0.690  0.4056E+00  0.3331E+01
  -0.680  0.4030E+00  0.3335E+01
  -0.670  0.4005E+00  0.3339E+01
  -0.660  0.3980E+00  0.3343E+01
  -0.650  0.3955E+00  0.3347E+01
  -0.640  0.3931E+00  0.3351E+01
  -0.630  0.3907E+00  0.3355E+01
  -0.620  0.3884E+00  0.3359E+01
  -0.610  0.3861E+00  0.3362E+01
  -0.600  0.3838E+00  0.3366E+01
  -0.590  0.3816E+00  0.3370E+01
  -0.580  0.3793E+00  0.3374E+01
  -0.570  0.3771E+00  0.3378E+01
  -0.560  0.3750E+00  0.3381E+01
  -0.550  0.3728E+00  0.3385E+01
  -0.540  0.3706E+00  0.3389E+01
  -0.530  0.3685E+00  0.3393E+01
  -0.520  0.3663E+00  0.3396E+01
  -0.510  0.3642E+00  0.3400E+01
  -0.500  0.3620E+00  0.3403E+01
  -0.490  0.3599E+00  0.3407E+01
  -0.480  0.3577E+00  0.3411E+01
  -0.470  0.3555E+00  0.3414E+01
  -0.460  0.3534E+00  0.3418E+01
  -0.450  0.3512E+00  0.3421E+01
  -0.440  0.3491E+00  0.3425E+01
  -0.430  0.3470E+00  0.3428E+01
  -0.420  0.3449E+00  0.3432E+01
  -0.410  0.3428E+00  0.3435E+01
  -0.400  0.3408E+00  0.3439E+01
  -0.390  0.3388E+00  0.3442E+01
  -0.380  0.3368E+00  0.3445E+01
  -0.370  0.3349E+00  0.3449E+01
  -0.360  0.3330E+00  0.3452E+01
  -0.350  0.3311E+00  0.3455E+01
  -0.340  0.3293E+00  0.3459E+01
  -0.330  0.3275E+00  0.3462E+01
  -0.320  0.3257E+00  0.3465E+01
  -0.310  0.3240E+00  0.3468E+01
  -0.300  0.3223E+00  0.3472E+01
  -0.290  0.3206E+00  0.3475E+01
  -0.280  0.3189E+00  0.3478E+01
  -0.270  0.3172E+00  0.3481E+01
  -0.260  0.3155E+00  0.3484E+01
  -0.250  0.3138E+00  0.3487E+01
  -0.240  0.3120E+00  0.3491E+01
  -0.230  0.3103E+00  0.3494E+01
  -0.220  0.3085E+00  0.3497E+01
  -0.210  0.3068E+00  0.3500E+01
  -0.200  0.3050E+00  0.3503E+01
  -0.190  0.3031E+00  0.3506E+01
  -0.180  0.3013E+00  0.3509E+01
  -0.170  0.2995E+00  0.3512E+01
  -0.160  0.2977E+00  0.3515E+01
  -0.150  0.2959E+00  0.3518E+01
  -0.140  0.2942E+00  0.3521E+01
  -0.130  0.2924E+00  0.3524E+01
  -0.120  0.2907E+00  0.3527E+01
  -0.110  0.2891E+00  0.3529E+01
  -0.100  0.2874E+00  0.3532E+01
  -0.090  0.2859E+00  0.3535E+01
  -0.080  0.2843E+00  0.3538E+01
  -0.070  0.2828E+00  0.3541E+01
  -0.060  0.2814E+00  0.3544E+01
  -0.050  0.2799E+00  0.3546E+01
  -0.040  0.2785E+00  0.3549E+01
  -0.030  0.2772E+00  0.3552E+01
  -0.020  0.2758E+00  0.3555E+01
  -0.010  0.2744E+00  0.3558E+01
   0.000  0.2730E+00  0.3560E+01
   0.010  0.2716E+00  0.3563E+01
   0.020  0.2702E+00  0.3566E+01
   0.030  0.2688E+00  0.3568E+01
   0.040  0.2674E+00  0.3571E+01
   0.050  0.2660E+00  0.3574E+01
   0.060  0.2645E+00  0.3576E+01
   0.070  0.2630E+00  0.3579E+01
   0.080  0.2615E+00  0.3582E+01
   0.090  0.2600E+00  0.3584E+01
   0.100  0.2585E+00  0.3587E+01
   0.110  0.2569E+00  0.3589E+01
   0.120  0.2554E+00  0.3592E+01
   0.130  0.2539E+00  0.3594E+01
   0.140  0.2524E+00  0.3597E+01
   0.150  0.2509E+00  0.3599E+01
   0.160  0.2494E+00  0.3602E+01
   0.170  0.2480E+00  0.3604E+01
   0.180  0.2466E+00  0.3607E+01
   0.190  0.2452E+00  0.3609E+01
   0.200  0.2438E+00  0.3612E+01
   0.210  0.2425E+00  0.3614E+01
   0.220  0.2413E+00  0.3617E+01
   0.230  0.2400E+00  0.3619E+01
   0.240  0.2388E+00  0.3621E+01
   0.250  0.2377E+00  0.3624E+01
   0.260  0.2365E+00  0.3626E+01
   0.270  0.2354E+00  0.3629E+01
   0.280  0.2343E+00  0.3631E+01
   0.290  0.2332E+00  0.3633E+01
   0.300  0.2321E+00  0.3636E+01
   0.310  0.2309E+00  0.3638E+01
   0.320  0.2298E+00  0.3640E+01
   0.330  0.2286E+00  0.3642E+01
   0.340  0.2275E+00  0.3645E+01
   0.350  0.2263E+00  0.3647E+01
   0.360  0.2250E+00  0.3649E+01
   0.370  0.2238E+00  0.3651E+01
   0.380  0.2225E+00  0.3654E+01
   0.390  0.2212E+00  0.3656E+01
   0.400  0.2199E+00  0.3658E+01
   0.410  0.2186E+00  0.3660E+01
   0.420  0.2173E+00  0.3662E+01
   0.430  0.2160E+00  0.3665E+01
   0.440  0.2147E+00  0.3667E+01
   0.450  0.2134E+00  0.3669E+01
   0.460  0.2121E+00  0.3671E+01
   0.470  0.2109E+00  0.3673E+01
   0.480  0.2097E+00  0.3675E+01
   0.490  0.2085E+00  0.3677E+01
   0.500  0.2073E+00  0.3679E+01
   0.510  0.2062E+00  0.3681E+01
   0.520  0.2052E+00  0.3683E+01
   0.530  0.2041E+00  0.3686E+01
   0.540  0.2031E+00  0.3688E+01
   0.550  0.2021E+00  0.3690E+01
   0.560  0.2011E+00  0.3692E+01
   0.570  0.2001E+00  0.3694E+01
   0.580  0.1992E+00  0.3696E+01
   0.590  0.1983E+00  0.3698E+01
   0.600  0.1973E+00  0.3700E+01
   0.610  0.1964E+00  0.3701E+01
   0.620  0.1955E+00  0.3703E+01
   0.630  0.1946E+00  0.3705E+01
   0.640  0.1937E+00  0.3707E+01
   0.650  0.1927E+00  0.3709E+01
   0.660  0.1918E+00  0.3711E+01
   0.670  0.1909E+00  0.3713E+01
   0.680  0.1899E+00  0.3715E+01
   0.690  0.1889E+00  0.3717E+01
   0.700  0.1879E+00  0.3719E+01
   0.710  0.1869E+00  0.3721E+01
   0.720  0.1859E+00  0.3722E+01
   0.730  0.1849E+00  0.3724E+01
   0.740  0.1839E+00  0.3726E+01
   0.750  0.1828E+00  0.3728E+01
   0.760  0.1818E+00  0.3730E+01
   0.770  0.1807E+00  0.3732E+01
   0.780  0.1797E+00  0.3733E+01
   0.790  0.1787E+00  0.3735E+01
   0.800  0.1777E+00  0.3737E+01
   0.810  0.1768E+00  0.3739E+01
   0.820  0.1759E+00  0.3741E+01
   0.830  0.1751E+00  0.3742E+01
   0.840  0.1743E+00  0.3744E+01
   0.850  0.1736E+00  0.3746E+01
   0.860  0.1730E+00  0.3747E+01
   0.870  0.1724E+00  0.3749E+01
   0.880  0.1719E+00  0.3751E+01
   0.890  0.1715E+00  0.3753E+01
   0.900  0.1711E+00  0.3754E+01
   0.910  0.1708E+00  0.3756E+01
   0.920  0.1706E+00  0.3758E+01
   0.930  0.1704E+00  0.3759E+01
   0.940  0.1703E+00  0.3761E+01
   0.950  0.1703E+00  0.3763E+01
   0.960  0.1703E+00  0.3765E+01
   0.970  0.1703E+00  0.3766E+01
   0.980  0.1705E+00  0.3768E+01
   0.990  0.1707E+00  0.3770E+01
   1.000  0.1710E+00  0.3771E+01
   1.010  0.1714E+00  0.3773E+01
   1.020  0.1719E+00  0.3775E+01
   1.030  0.1725E+00  0.3777E+01
   1.040  0.1732E+00  0.3778E+01
   1.050  0.1741E+00  0.3780E+01
   1.060  0.1752E+00  0.3782E+01
   1.070  0.1765E+00  0.3784E+01
   1.080  0.1780E+00  0.3785E+01
   1.090  0.1797E+00  0.3787E+01
   1.100  0.1818E+00  0.3789E+01
   1.110  0.1841E+00  0.3791E+01
   1.120  0.1868E+00  0.3793E+01
   1.130  0.1899E+00  0.3795E+01
   1.140  0.1934E+00  0.3796E+01
   1.150  0.1974E+00  0.3798E+01
   1.160  0.2019E+00  0.3800E+01
   1.170  0.2069E+00  0.3803E+01
   1.180  0.2125E+00  0.3805E+01
   1.190  0.2187E+00  0.3807E+01
   1.200  0.2255E+00  0.3809E+01
   1.210  0.2331E+00  0.3811E+01
   1.220  0.2413E+00  0.3814E+01
   1.230  0.2504E+00  0.3816E+01
   1.240  0.2602E+00  0.3819E+01
   1.250  0.2709E+00  0.3822E+01
   1.260  0.2824E+00  0.3824E+01
   1.270  0.2948E+00  0.3827E+01
   1.280  0.3081E+00  0.3831E+01
   1.290  0.3224E+00  0.3834E+01
   1.300  0.3375E+00  0.3837E+01
   1.310  0.3536E+00  0.3841E+01
   1.320  0.3706E+00  0.3844E+01
   1.330  0.3884E+00  0.3848E+01
   1.340  0.4072E+00  0.3852E+01
   1.350  0.4268E+00  0.3857E+01
   1.360  0.4472E+00  0.3861E+01
   1.370  0.4684E+00  0.3866E+01
   1.380  0.4903E+00  0.3871E+01
   1.390  0.5128E+00  0.3876E+01
   1.400  0.5360E+00  0.3881E+01
   1.410  0.5597E+00  0.3887E+01
   1.420  0.5839E+00  0.3893E+01
   1.430  0.6084E+00  0.3899E+01
   1.440  0.6334E+00  0.3905E+01
   1.450  0.6585E+00  0.3912E+01
   1.460  0.6839E+00  0.3918E+01
   1.470  0.7093E+00  0.3925E+01
   1.480  0.7347E+00  0.3933E+01
   1.490  0.7601E+00  0.3940E+01
   1.500  0.7853E+00  0.3948E+01
   1.510  0.8102E+00  0.3956E+01
   1.520  0.8348E+00  0.3965E+01
   1.530  0.8590E+00  0.3973E+01
   1.540  0.8826E+00  0.3982E+01
   1.550  0.9056E+00  0.3991E+01
   1.560  0.9278E+00  0.4000E+01
   1.570  0.9493E+00  0.4010E+01
   1.580  0.9700E+00  0.4020E+01
   1.590  0.9897E+00  0.4030E+01
   1.600  0.1008E+01  0.4040E+01
   1.610  0.1026E+01  0.4050E+01
   1.620  0.1043E+01  0.4060E+01
   1.630  0.1058E+01  0.4071E+01
   1.640  0.1072E+01  0.4082E+01
   1.650  0.1085E+01  0.4093E+01
   1.660  0.1097E+01  0.4103E+01
   1.670  0.1108E+01  0.4115E+01
   1.680  0.1117E+01  0.4126E+01
   1.690  0.1126E+01  0.4137E+01
   1.700  0.1133E+01  0.4148E+01
   1.710  0.1139E+01  0.4160E+01
   1.720  0.1144E+01  0.4171E+01
   1.730  0.1149E+01  0.4183E+01
   1.740  0.1152E+01  0.4194E+01
   1.750  0.1154E+01  0.4206E+01
   1.760  0.1155E+01  0.4217E+01
   1.770  0.1156E+01  0.4229E+01
   1.780  0.1156E+01  0.4240E+01
   1.790  0.1156E+01  0.4252E+01
   1.800  0.1154E+01  0.4263E+01
   1.810  0.1153E+01  0.4275E+01
   1.820  0.1151E+01  0.4287E+01
   1.830  0.1148E+01  0.4298E+01
   1.840  0.1145E+01  0.4309E+01
   1.850  0.1142E+01  0.4321E+01
   1.860  0.1139E+01  0.4332E+01
   1.870  0.1135E+01  0.4344E+01
   1.880  0.1132E+01  0.4355E+01
   1.890  0.1128E+01  0.4366E+01
   1.900  0.1125E+01  0.4377E+01
   1.910  0.1121E+01  0.4389E+01
   1.920  0.1117E+01  0.4400E+01
   1.930  0.1114E+01  0.4411E+01
   1.940  0.1111E+01  0.4422E+01
   1.950  0.1107E+01  0.4433E+01
   1.960  0.1104E+01  0.4444E+01
   1.970  0.1101E+01  0.4455E+01
   1.980  0.1098E+01  0.4466E+01
   1.990  0.1095E+01  0.4477E+01
   2.000  0.1093E+01  0.4488E+01
   2.010  0.1090E+01  0.4499E+01
   2.020  0.1088E+01  0.4510E+01
   2.030  0.1086E+01  0.4521E+01
   2.040  0.1084E+01  0.4532E+01
   2.050  0.1083E+01  0.4542E+01
   2.060  0.1081E+01  0.4553E+01
   2.070  0.1080E+01  0.4564E+01
   2.080  0.1078E+01  0.4575E+01
   2.090  0.1077E+01  0.4586E+01
   2.100  0.1076E+01  0.4596E+01
   2.110  0.1075E+01  0.4607E+01
   2.120  0.1075E+01  0.4618E+01
   2.130  0.1074E+01  0.4629E+01
   2.140  0.1074E+01  0.4639E+01
   2.150  0.1074E+01  0.4650E+01
   2.160  0.1074E+01  0.4661E+01
   2.170  0.1074E+01  0.4672E+01
   2.180  0.1074E+01  0.4682E+01
   2.190  0.1075E+01  0.4693E+01
   2.200  0.1075E+01  0.4704E+01
   2.210  0.1076E+01  0.4715E+01
   2.220  0.1077E+01  0.4725E+01
   2.230  0.1079E+01  0.4736E+01
   2.240  0.1080E+01  0.4747E+01
   2.250  0.1082E+01  0.4758E+01
   2.260  0.1084E+01  0.4769E+01
   2.270  0.1086E+01  0.4779E+01
   2.280  0.1088E+01  0.4790E+01
   2.290  0.1090E+01  0.4801E+01
   2.300  0.1093E+01  0.4812E+01
   2.310  0.1096E+01  0.4823E+01
   2.320  0.1098E+01  0.4834E+01
   2.330  0.1102E+01  0.4845E+01
   2.340  0.1105E+01  0.4856E+01
   2.350  0.1108E+01  0.4867E+01
   2.360  0.1112E+01  0.4878E+01
   2.370  0.1115E+01  0.4889E+01
   2.380  0.1119E+01  0.4901E+01
   2.390  0.1123E+01  0.4912E+01
   2.400  0.1128E+01  0.4923E+01
   2.410  0.1132E+01  0.4934E+01
   2.420  0.1137E+01  0.4946E+01
   2.430  0.1142E+01  0.4957E+01
   2.440  0.1147E+01  0.4969E+01
   2.450  0.1152E+01  0.4980E+01
   2.460  0.1157E+01  0.4992E+01
   2.470  0.1163E+01  0.5003E+01
   2.480  0.1169E+01  0.5015E+01
   2.490  0.1175E+01  0.5027E+01
   2.500  0.1181E+01  0.5039E+01
   2.510  0.1187E+01  0.5051E+01
   2.520  0.1194E+01  0.5062E+01
   2.530  0.1200E+01  0.5074E+01
   2.540  0.1207E+01  0.5087E+01
   2.550  0.1214E+01  0.5099E+01
   2.560  0.1221E+01  0.5111E+01
   2.570  0.1228E+01  0.5123E+01
   2.580  0.1236E+01  0.5136E+01
   2.590  0.1243E+01  0.5148E+01
   2.600  0.1251E+01  0.5160E+01
   2.610  0.1259E+01  0.5173E+01
   2.620  0.1266E+01  0.5186E+01
   2.630  0.1274E+01  0.5198E+01
   2.640  0.1283E+01  0.5211E+01
   2.650  0.1291E+01  0.5224E+01
   2.660  0.1299E+01  0.5237E+01
   2.670  0.1307E+01  0.5250E+01
   2.680  0.1316E+01  0.5263E+01
   2.690  0.1324E+01  0.5277E+01
   2.700  0.1332E+01  0.5290E+01
   2.710  0.1341E+01  0.5303E+01
   2.720  0.1349E+01  0.5317E+01
   2.730  0.1357E+01  0.5330E+01
   2.740  0.1365E+01  0.5344E+01
   2.750  0.1373E+01  0.5358E+01
   2.760  0.1380E+01  0.5372E+01
   2.770  0.1387E+01  0.5386E+01
   2.780  0.1394E+01  0.5399E+01
   2.790  0.1401E+01  0.5413E+01
   2.800  0.1407E+01  0.5428E+01
   2.810  0.1412E+01  0.5442E+01
   2.820  0.1417E+01  0.5456E+01
   2.830  0.1422E+01  0.5470E+01
   2.840  0.1426E+01  0.5484E+01
   2.850  0.1429E+01  0.5499E+01
   2.860  0.1432E+01  0.5513E+01
   2.870  0.1435E+01  0.5527E+01
   2.880  0.1437E+01  0.5542E+01
   2.890  0.1439E+01  0.5556E+01
   2.900  0.1440E+01  0.5570E+01
   2.910  0.1441E+01  0.5585E+01
   2.920  0.1442E+01  0.5599E+01
   2.930  0.1442E+01  0.5614E+01
   2.940  0.1442E+01  0.5628E+01
   2.950  0.1441E+01  0.5643E+01
   2.960  0.1441E+01  0.5657E+01
   2.970  0.1440E+01  0.5671E+01
   2.980  0.1439E+01  0.5686E+01
   2.990  0.1438E+01  0.5700E+01
   3.000  0.1437E+01  0.5714E+01
   3.010  0.1435E+01  0.5729E+01
   3.020  0.1434E+01  0.5743E+01
   3.030  0.1432E+01  0.5757E+01
   3.040  0.1431E+01  0.5772E+01
   3.050  0.1429E+01  0.5786E+01
   3.060  0.1427E+01  0.5800E+01
   3.070  0.1425E+01  0.5815E+01
   3.080  0.1423E+01  0.5829E+01
   3.090  0.1422E+01  0.5843E+01
   3.100  0.1420E+01  0.5857E+01
   3.110  0.1418E+01  0.5871E+01
   3.120  0.1415E+01  0.5886E+01
   3.130  0.1413E+01  0.5900E+01
   3.140  0.1411E+01  0.5914E+01
   3.150  0.1409E+01  0.5928E+01
   3.160  0.1406E+01  0.5942E+01
   3.170  0.1404E+01  0.5956E+01
   3.180  0.1401E+01  0.5970E+01
   3.190  0.1398E+01  0.5984E+01
   3.200  0.1395E+01  0.5998E+01
   3.210  0.1392E+01  0.6012E+01
   3.220  0.1389E+01  0.6026E+01
   3.230  0.1386E+01  0.6040E+01
   3.240  0.1383E+01  0.6053E+01
   3.250  0.1380E+01  0.6067E+01
   3.260  0.1377E+01  0.6081E+01
   3.270  0.1374E+01  0.6095E+01
   3.280  0.1372E+01  0.6108E+01
   3.290  0.1369E+01  0.6122E+01
   3.300  0.1366E+01  0.6136E+01
   3.310  0.1363E+01  0.6149E+01
   3.320  0.1360E+01  0.6163E+01
   3.330  0.1357E+01  0.6177E+01
   3.340  0.1354E+01  0.6190E+01
   3.350  0.1351E+01  0.6204E+01
   3.360  0.1349E+01  0.6217E+01
   3.370  0.1346E+01  0.6231E+01
   3.380  0.1343E+01  0.6244E+01
   3.390  0.1340E+01  0.6257E+01
   3.400  0.1337E+01  0.6271E+01
   3.410  0.1334E+01  0.6284E+01
   3.420  0.1331E+01  0.6297E+01
   3.430  0.1328E+01  0.6311E+01
   3.440  0.1325E+01  0.6324E+01
   3.450  0.1322E+01  0.6337E+01
   3.460  0.1320E+01  0.6350E+01
   3.470  0.1317E+01  0.6364E+01
   3.480  0.1314E+01  0.6377E+01
   3.490  0.1311E+01  0.6390E+01
   3.500  0.1308E+01  0.6403E+01
   3.510  0.1306E+01  0.6416E+01
   3.520  0.1303E+01  0.6429E+01
   3.530  0.1300E+01  0.6442E+01
   3.540  0.1297E+01  0.6455E+01
   3.550  0.1294E+01  0.6468E+01
   3.560  0.1291E+01  0.6481E+01
   3.570  0.1289E+01  0.6494E+01
   3.580  0.1286E+01  0.6507E+01
   3.590  0.1283E+01  0.6519E+01
   3.600  0.1280E+01  0.6532E+01
   3.610  0.1277E+01  0.6545E+01
   3.620  0.1274E+01  0.6558E+01
   3.630  0.1271E+01  0.6570E+01
   3.640  0.1268E+01  0.6583E+01
   3.650  0.1265E+01  0.6596E+01
   3.660  0.1263E+01  0.6608E+01
   3.670  0.1260E+01  0.6621E+01
   3.680  0.1257E+01  0.6634E+01
   3.690  0.1254E+01  0.6646E+01
   3.700  0.1252E+01  0.6659E+01
   3.710  0.1249E+01  0.6671E+01
   3.720  0.1247E+01  0.6684E+01
   3.730  0.1244E+01  0.6696E+01
   3.740  0.1242E+01  0.6708E+01
   3.750  0.1239E+01  0.6721E+01
   3.760  0.1236E+01  0.6733E+01
   3.770  0.1234E+01  0.6746E+01
   3.780  0.1231E+01  0.6758E+01
   3.790  0.1228E+01  0.6770E+01
   3.800  0.1226E+01  0.6782E+01
   3.810  0.1223E+01  0.6795E+01
   3.820  0.1220E+01  0.6807E+01
   3.830  0.1217E+01  0.6819E+01
   3.840  0.1214E+01  0.6831E+01
   3.850  0.1210E+01  0.6843E+01
   3.860  0.1207E+01  0.6855E+01
   3.870  0.1204E+01  0.6867E+01
   3.880  0.1201E+01  0.6879E+01
   3.890  0.1198E+01  0.6891E+01
   3.900  0.1195E+01  0.6903E+01
   3.910  0.1192E+01  0.6915E+01
   3.920  0.1188E+01  0.6927E+01
   3.930  0.1185E+01  0.6939E+01
   3.940  0.1183E+01  0.6951E+01
   3.950  0.1180E+01  0.6963E+01
   3.960  0.1177E+01  0.6974E+01
   3.970  0.1174E+01  0.6986E+01
   3.980  0.1172E+01  0.6998E+01
   3.990  0.1169E+01  0.7009E+01
   4.000  0.1166E+01  0.7021E+01
   4.010  0.1164E+01  0.7033E+01
   4.020  0.1161E+01  0.7044E+01
   4.030  0.1159E+01  0.7056E+01
   4.040  0.1156E+01  0.7068E+01
   4.050  0.1153E+01  0.7079E+01
   4.060  0.1150E+01  0.7091E+01
   4.070  0.1147E+01  0.7102E+01
   4.080  0.1144E+01  0.7113E+01
   4.090  0.1141E+01  0.7125E+01
   4.100  0.1138E+01  0.7136E+01
   4.110  0.1134E+01  0.7148E+01
   4.120  0.1131E+01  0.7159E+01
   4.130  0.1127E+01  0.7170E+01
   4.140  0.1123E+01  0.7181E+01
   4.150  0.1119E+01  0.7193E+01
   4.160  0.1115E+01  0.7204E+01
   4.170  0.1110E+01  0.7215E+01
   4.180  0.1106E+01  0.7226E+01
   4.190  0.1101E+01  0.7237E+01
   4.200  0.1097E+01  0.7248E+01
   4.210  0.1092E+01  0.7259E+01
   4.220  0.1086E+01  0.7270E+01
   4.230  0.1081E+01  0.7281E+01
   4.240  0.1076E+01  0.7291E+01
   4.250  0.1070E+01  0.7302E+01
   4.260  0.1064E+01  0.7313E+01
   4.270  0.1058E+01  0.7323E+01
   4.280  0.1052E+01  0.7334E+01
   4.290  0.1045E+01  0.7344E+01
   4.300  0.1038E+01  0.7355E+01
   4.310  0.1031E+01  0.7365E+01
   4.320  0.1024E+01  0.7375E+01
   4.330  0.1016E+01  0.7385E+01
   4.340  0.1008E+01  0.7395E+01
   4.350  0.9992E+00  0.7405E+01
   4.360  0.9903E+00  0.7415E+01
   4.370  0.9810E+00  0.7425E+01
   4.380  0.9714E+00  0.7435E+01
   4.390  0.9614E+00  0.7444E+01
   4.400  0.9511E+00  0.7454E+01
   4.410  0.9405E+00  0.7463E+01
   4.420  0.9296E+00  0.7473E+01
   4.430  0.9184E+00  0.7482E+01
   4.440  0.9070E+00  0.7491E+01
   4.450  0.8954E+00  0.7500E+01
   4.460  0.8836E+00  0.7509E+01
   4.470  0.8717E+00  0.7517E+01
   4.480  0.8597E+00  0.7526E+01
   4.490  0.8477E+00  0.7534E+01
   4.500  0.8356E+00  0.7543E+01
   4.510  0.8234E+00  0.7551E+01
   4.520  0.8113E+00  0.7559E+01
   4.530  0.7992E+00  0.7567E+01
   4.540  0.7872E+00  0.7575E+01
   4.550  0.7753E+00  0.7583E+01
   4.560  0.7634E+00  0.7590E+01
   4.570  0.7516E+00  0.7598E+01
   4.580  0.7400E+00  0.7605E+01
   4.590  0.7285E+00  0.7613E+01
   4.600  0.7171E+00  0.7620E+01
   4.610  0.7059E+00  0.7627E+01
   4.620  0.6948E+00  0.7634E+01
   4.630  0.6838E+00  0.7641E+01
   4.640  0.6731E+00  0.7647E+01
   4.650  0.6625E+00  0.7654E+01
   4.660  0.6521E+00  0.7660E+01
   4.670  0.6419E+00  0.7667E+01
   4.680  0.6318E+00  0.7673E+01
   4.690  0.6220E+00  0.7679E+01
   4.700  0.6123E+00  0.7686E+01
   4.710  0.6029E+00  0.7692E+01
   4.720  0.5936E+00  0.7698E+01
   4.730  0.5845E+00  0.7703E+01
   4.740  0.5756E+00  0.7709E+01
   4.750  0.5670E+00  0.7715E+01
   4.760  0.5585E+00  0.7720E+01
   4.770  0.5501E+00  0.7726E+01
   4.780  0.5420E+00  0.7731E+01
   4.790  0.5340E+00  0.7737E+01
   4.800  0.5262E+00  0.7742E+01
   4.810  0.5186E+00  0.7747E+01
   4.820  0.5110E+00  0.7752E+01
   4.830  0.5037E+00  0.7757E+01
   4.840  0.4964E+00  0.7762E+01
   4.850  0.4893E+00  0.7767E+01
   4.860  0.4822E+00  0.7772E+01
   4.870  0.4753E+00  0.7777E+01
   4.880  0.4685E+00  0.7781E+01
   4.890  0.4617E+00  0.7786E+01
   4.900  0.4551E+00  0.7791E+01
   4.910  0.4485E+00  0.7795E+01
   4.920  0.4420E+00  0.7799E+01
   4.930  0.4356E+00  0.7804E+01
   4.940  0.4293E+00  0.7808E+01
   4.950  0.4231E+00  0.7812E+01
   4.960  0.4169E+00  0.7816E+01
   4.970  0.4108E+00  0.7821E+01
   4.980  0.4048E+00  0.7825E+01
   4.990  0.3988E+00  0.7829E+01
   5.000  0.3930E+00  0.7833E+01
   5.010  0.3871E+00  0.7836E+01
   5.020  0.3814E+00  0.7840E+01
   5.030  0.3757E+00  0.7844E+01
   5.040  0.3701E+00  0.7848E+01
   5.050  0.3646E+00  0.7851E+01
   5.060  0.3591E+00  0.7855E+01
   5.070  0.3537E+00  0.7858E+01
   5.080  0.3484E+00  0.7862E+01
   5.090  0.3430E+00  0.7865E+01
   5.100  0.3378E+00  0.7869E+01
   5.110  0.3326E+00  0.7872E+01
   5.120  0.3274E+00  0.7875E+01
   5.130  0.3223E+00  0.7879E+01
   5.140  0.3173E+00  0.7882E+01
   5.150  0.3123E+00  0.7885E+01
   5.160  0.3074E+00  0.7888E+01
   5.170  0.3025E+00  0.7891E+01
   5.180  0.2976E+00  0.7894E+01
   5.190  0.2928E+00  0.7897E+01
   5.200  0.2881E+00  0.7900E+01
   5.210  0.2834E+00  0.7903E+01
   5.220  0.2788E+00  0.7905E+01
   5.230  0.2742E+00  0.7908E+01
   5.240  0.2697E+00  0.7911E+01
   5.250  0.2652E+00  0.7913E+01
   5.260  0.2607E+00  0.7916E+01
   5.270  0.2563E+00  0.7919E+01
   5.280  0.2519E+00  0.7921E+01
   5.290  0.2476E+00  0.7924E+01
   5.300  0.2432E+00  0.7926E+01
   5.310  0.2389E+00  0.7928E+01
   5.320  0.2346E+00  0.7931E+01
   5.330  0.2304E+00  0.7933E+01
   5.340  0.2261E+00  0.7935E+01
   5.350  0.2219E+00  0.7938E+01
   5.360  0.2176E+00  0.7940E+01
   5.370  0.2134E+00  0.7942E+01
   5.380  0.2092E+00  0.7944E+01
   5.390  0.2049E+00  0.7946E+01
   5.400  0.2007E+00  0.7948E+01
   5.410  0.1965E+00  0.7950E+01
   5.420  0.1923E+00  0.7952E+01
   5.430  0.1881E+00  0.7954E+01
   5.440  0.1840E+00  0.7956E+01
   5.450  0.1798E+00  0.7957E+01
   5.460  0.1757E+00  0.7959E+01
   5.470  0.1715E+00  0.7961E+01
   5.480  0.1674E+00  0.7963E+01
   5.490  0.1633E+00  0.7964E+01
   5.500  0.1592E+00  0.7966E+01
   5.510  0.1551E+00  0.7967E+01
   5.520  0.1511E+00  0.7969E+01
   5.530  0.1470E+00  0.7970E+01
   5.540  0.1430E+00  0.7972E+01
   5.550  0.1390E+00  0.7973E+01
   5.560  0.1349E+00  0.7975E+01
   5.570  0.1309E+00  0.7976E+01
   5.580  0.1269E+00  0.7977E+01
   5.590  0.1229E+00  0.7978E+01
   5.600  0.1189E+00  0.7980E+01
   5.610  0.1150E+00  0.7981E+01
   5.620  0.1110E+00  0.7982E+01
   5.630  0.1071E+00  0.7983E+01
   5.640  0.1031E+00  0.7984E+01
   5.650  0.9923E-01  0.7985E+01
   5.660  0.9535E-01  0.7986E+01
   5.670  0.9150E-01  0.7987E+01
   5.680  0.8769E-01  0.7988E+01
   5.690  0.8393E-01  0.7988E+01
   5.700  0.8021E-01  0.7989E+01
   5.710  0.7656E-01  0.7990E+01
   5.720  0.7298E-01  0.7991E+01
   5.730  0.6948E-01  0.7991E+01
   5.740  0.6607E-01  0.7992E+01
   5.750  0.6276E-01  0.7993E+01
   5.760  0.5955E-01  0.7993E+01
   5.770  0.5647E-01  0.7994E+01
   5.780  0.5351E-01  0.7994E+01
   5.790  0.5069E-01  0.7995E+01
   5.800  0.4801E-01  0.7995E+01
   5.810  0.4549E-01  0.7996E+01
   5.820  0.4313E-01  0.7996E+01
   5.830  0.4093E-01  0.7997E+01
   5.840  0.3891E-01  0.7997E+01
   5.850  0.3707E-01  0.7997E+01
   5.860  0.3541E-01  0.7998E+01
   5.870  0.3394E-01  0.7998E+01
   5.880  0.3266E-01  0.7998E+01
   5.890  0.3157E-01  0.7999E+01
   5.900  0.3067E-01  0.7999E+01
   5.910  0.2996E-01  0.7999E+01
   5.920  0.2944E-01  0.8000E+01
   5.930  0.2911E-01  0.8000E+01
   5.940  0.2898E-01  0.8000E+01
   5.950  0.2903E-01  0.8001E+01
   5.960  0.2926E-01  0.8001E+01
   5.970  0.2968E-01  0.8001E+01
   5.980  0.3028E-01  0.8001E+01
   5.990  0.3105E-01  0.8002E+01
   6.000  0.3200E-01  0.8002E+01
   6.010  0.3312E-01  0.8002E+01
   6.020  0.3441E-01  0.8003E+01
   6.030  0.3586E-01  0.8003E+01
   6.040  0.3746E-01  0.8004E+01
   6.050  0.3922E-01  0.8004E+01
   6.060  0.4114E-01  0.8004E+01
   6.070  0.4319E-01  0.8005E+01
   6.080  0.4540E-01  0.8005E+01
   6.090  0.4774E-01  0.8006E+01
   6.100  0.5022E-01  0.8006E+01
   6.110  0.5284E-01  0.8007E+01
   6.120  0.5560E-01  0.8007E+01
   6.130  0.5850E-01  0.8008E+01
   6.140  0.6154E-01  0.8008E+01
   6.150  0.6473E-01  0.8009E+01
   6.160  0.6806E-01  0.8010E+01
   6.170  0.7156E-01  0.8011E+01
   6.180  0.7523E-01  0.8011E+01
   6.190  0.7907E-01  0.8012E+01
   6.200  0.8311E-01  0.8013E+01
   6.210  0.8734E-01  0.8014E+01
   6.220  0.9179E-01  0.8015E+01
   6.230  0.9646E-01  0.8016E+01
   6.240  0.1014E+00  0.8017E+01
   6.250  0.1065E+00  0.8018E+01
   6.260  0.1119E+00  0.8019E+01
   6.270  0.1176E+00  0.8020E+01
   6.280  0.1235E+00  0.8021E+01
   6.290  0.1297E+00  0.8023E+01
   6.300  0.1362E+00  0.8024E+01
   6.310  0.1430E+00  0.8025E+01
   6.320  0.1500E+00  0.8027E+01
   6.330  0.1572E+00  0.8028E+01
   6.340  0.1647E+00  0.8030E+01
   6.350  0.1724E+00  0.8032E+01
   6.360  0.1804E+00  0.8034E+01
   6.370  0.1886E+00  0.8035E+01
   6.380  0.1970E+00  0.8037E+01
   6.390  0.2055E+00  0.8039E+01
   6.400  0.2143E+00  0.8042E+01
   6.410  0.2232E+00  0.8044E+01
   6.420  0.2323E+00  0.8046E+01
   6.430  0.2416E+00  0.8049E+01
   6.440  0.2510E+00  0.8051E+01
   6.450  0.2605E+00  0.8054E+01
   6.460  0.2702E+00  0.8056E+01
   6.470  0.2800E+00  0.8059E+01
   6.480  0.2900E+00  0.8062E+01
   6.490  0.3001E+00  0.8065E+01
   6.500  0.3104E+00  0.8068E+01
   6.510  0.3207E+00  0.8071E+01
   6.520  0.3312E+00  0.8075E+01
   6.530  0.3419E+00  0.8078E+01
   6.540  0.3526E+00  0.8082E+01
   6.550  0.3635E+00  0.8085E+01
   6.560  0.3744E+00  0.8089E+01
   6.570  0.3855E+00  0.8093E+01
   6.580  0.3966E+00  0.8097E+01
   6.590  0.4079E+00  0.8101E+01
   6.600  0.4191E+00  0.8105E+01
   6.610  0.4304E+00  0.8109E+01
   6.620  0.4417E+00  0.8114E+01
   6.630  0.4531E+00  0.8118E+01
   6.640  0.4644E+00  0.8123E+01
   6.650  0.4757E+00  0.8128E+01
   6.660  0.4870E+00  0.8133E+01
   6.670  0.4982E+00  0.8138E+01
   6.680  0.5094E+00  0.8143E+01
   6.690  0.5205E+00  0.8148E+01
   6.700  0.5315E+00  0.8153E+01
   6.710  0.5426E+00  0.8159E+01
   6.720  0.5535E+00  0.8164E+01
   6.730  0.5644E+00  0.8170E+01
   6.740  0.5753E+00  0.8176E+01
   6.750  0.5861E+00  0.8181E+01
   6.760  0.5968E+00  0.8187E+01
   6.770  0.6076E+00  0.8194E+01
   6.780  0.6183E+00  0.8200E+01
   6.790  0.6290E+00  0.8206E+01
   6.800  0.6398E+00  0.8212E+01
   6.810  0.6505E+00  0.8219E+01
   6.820  0.6613E+00  0.8226E+01
   6.830  0.6721E+00  0.8232E+01
   6.840  0.6829E+00  0.8239E+01
   6.850  0.6938E+00  0.8246E+01
   6.860  0.7048E+00  0.8253E+01
   6.870  0.7158E+00  0.8260E+01
   6.880  0.7269E+00  0.8267E+01
   6.890  0.7380E+00  0.8275E+01
   6.900  0.7492E+00  0.8282E+01
   6.910  0.7605E+00  0.8290E+01
   6.920  0.7719E+00  0.8298E+01
   6.930  0.7832E+00  0.8306E+01
   6.940  0.7946E+00  0.8313E+01
   6.950  0.8061E+00  0.8322E+01
   6.960  0.8176E+00  0.8330E+01
   6.970  0.8291E+00  0.8338E+01
   6.980  0.8406E+00  0.8346E+01
   6.990  0.8521E+00  0.8355E+01
   7.000  0.8637E+00  0.8364E+01
   7.010  0.8753E+00  0.8372E+01
   7.020  0.8869E+00  0.8381E+01
   7.030  0.8986E+00  0.8390E+01
   7.040  0.9103E+00  0.8399E+01
   7.050  0.9220E+00  0.8408E+01
   7.060  0.9339E+00  0.8418E+01
   7.070  0.9458E+00  0.8427E+01
   7.080  0.9578E+00  0.8437E+01
   7.090  0.9699E+00  0.8447E+01
   7.100  0.9821E+00  0.8456E+01
   7.110  0.9944E+00  0.8466E+01
   7.120  0.1007E+01  0.8476E+01
   7.130  0.1019E+01  0.8487E+01
   7.140  0.1032E+01  0.8497E+01
   7.150  0.1045E+01  0.8507E+01
   7.160  0.1058E+01  0.8518E+01
   7.170  0.1072E+01  0.8529E+01
   7.180  0.1085E+01  0.8540E+01
   7.190  0.1099E+01  0.8551E+01
   7.200  0.1113E+01  0.8562E+01
   7.210  0.1127E+01  0.8573E+01
   7.220  0.1141E+01  0.8584E+01
   7.230  0.1155E+01  0.8596E+01
   7.240  0.1170E+01  0.8608E+01
   7.250  0.1184E+01  0.8619E+01
   7.260  0.1199E+01  0.8631E+01
   7.270  0.1214E+01  0.8644E+01
   7.280  0.1229E+01  0.8656E+01
   7.290  0.1244E+01  0.8668E+01
   7.300  0.1259E+01  0.8681E+01
   7.310  0.1275E+01  0.8694E+01
   7.320  0.1290E+01  0.8706E+01
   7.330  0.1305E+01  0.8720E+01
   7.340  0.1321E+01  0.8733E+01
   7.350  0.1336E+01  0.8746E+01
   7.360  0.1351E+01  0.8760E+01
   7.370  0.1366E+01  0.8773E+01
   7.380  0.1381E+01  0.8787E+01
   7.390  0.1396E+01  0.8801E+01
   7.400  0.1410E+01  0.8815E+01
   7.410  0.1425E+01  0.8829E+01
   7.420  0.1438E+01  0.8844E+01
   7.430  0.1452E+01  0.8858E+01
   7.440  0.1464E+01  0.8873E+01
   7.450  0.1476E+01  0.8888E+01
   7.460  0.1488E+01  0.8903E+01
   7.470  0.1499E+01  0.8918E+01
   7.480  0.1509E+01  0.8933E+01
   7.490  0.1518E+01  0.8948E+01
   7.500  0.1526E+01  0.8963E+01
   7.510  0.1533E+01  0.8978E+01
   7.520  0.1539E+01  0.8994E+01
   7.530  0.1544E+01  0.9009E+01
   7.540  0.1548E+01  0.9025E+01
   7.550  0.1551E+01  0.9040E+01
   7.560  0.1554E+01  0.9056E+01
   7.570  0.1555E+01  0.9071E+01
   7.580  0.1555E+01  0.9087E+01
   7.590  0.1555E+01  0.9102E+01
   7.600  0.1553E+01  0.9118E+01
   7.610  0.1551E+01  0.9133E+01
   7.620  0.1548E+01  0.9149E+01
   7.630  0.1544E+01  0.9164E+01
   7.640  0.1540E+01  0.9180E+01
   7.650  0.1535E+01  0.9195E+01
   7.660  0.1529E+01  0.9210E+01
   7.670  0.1523E+01  0.9226E+01
   7.680  0.1516E+01  0.9241E+01
   7.690  0.1508E+01  0.9256E+01
   7.700  0.1501E+01  0.9271E+01
   7.710  0.1492E+01  0.9286E+01
   7.720  0.1483E+01  0.9301E+01
   7.730  0.1474E+01  0.9315E+01
   7.740  0.1464E+01  0.9330E+01
   7.750  0.1454E+01  0.9345E+01
   7.760  0.1444E+01  0.9359E+01
   7.770  0.1433E+01  0.9373E+01
   7.780  0.1422E+01  0.9388E+01
   7.790  0.1411E+01  0.9402E+01
   7.800  0.1399E+01  0.9416E+01
   7.810  0.1387E+01  0.9430E+01
   7.820  0.1375E+01  0.9443E+01
   7.830  0.1362E+01  0.9457E+01
   7.840  0.1350E+01  0.9470E+01
   7.850  0.1337E+01  0.9484E+01
   7.860  0.1324E+01  0.9497E+01
   7.870  0.1310E+01  0.9510E+01
   7.880  0.1297E+01  0.9523E+01
   7.890  0.1283E+01  0.9536E+01
   7.900  0.1269E+01  0.9549E+01
   7.910  0.1255E+01  0.9561E+01
   7.920  0.1241E+01  0.9574E+01
   7.930  0.1227E+01  0.9586E+01
   7.940  0.1213E+01  0.9598E+01
   7.950  0.1200E+01  0.9610E+01
   7.960  0.1186E+01  0.9622E+01
   7.970  0.1172E+01  0.9634E+01
   7.980  0.1159E+01  0.9645E+01
   7.990  0.1146E+01  0.9657E+01
   8.000  0.1133E+01  0.9668E+01
   8.010  0.1120E+01  0.9679E+01
   8.020  0.1108E+01  0.9690E+01
   8.030  0.1096E+01  0.9701E+01
   8.040  0.1085E+01  0.9712E+01
   8.050  0.1074E+01  0.9723E+01
   8.060  0.1063E+01  0.9733E+01
   8.070  0.1053E+01  0.9744E+01
   8.080  0.1043E+01  0.9754E+01
   8.090  0.1034E+01  0.9765E+01
   8.100  0.1025E+01  0.9775E+01
   8.110  0.1017E+01  0.9785E+01
   8.120  0.1009E+01  0.9795E+01
   8.130  0.1001E+01  0.9805E+01
   8.140  0.9935E+00  0.9815E+01
   8.150  0.9866E+00  0.9825E+01
   8.160  0.9800E+00  0.9835E+01
   8.170  0.9738E+00  0.9845E+01
   8.180  0.9680E+00  0.9854E+01
   8.190  0.9625E+00  0.9864E+01
   8.200  0.9575E+00  0.9873E+01
   8.210  0.9528E+00  0.9883E+01
   8.220  0.9485E+00  0.9892E+01
   8.230  0.9447E+00  0.9902E+01
   8.240  0.9413E+00  0.9911E+01
   8.250  0.9383E+00  0.9921E+01
   8.260  0.9358E+00  0.9930E+01
   8.270  0.9337E+00  0.9939E+01
   8.280  0.9321E+00  0.9949E+01
   8.290  0.9309E+00  0.9958E+01
   8.300  0.9302E+00  0.9967E+01
   8.310  0.9299E+00  0.9977E+01
   8.320  0.9300E+00  0.9986E+01
   8.330  0.9305E+00  0.9995E+01
   8.340  0.9314E+00  0.1000E+02
   8.350  0.9327E+00  0.1001E+02
   8.360  0.9342E+00  0.1002E+02
   8.370  0.9360E+00  0.1003E+02
   8.380  0.9381E+00  0.1004E+02
   8.390  0.9403E+00  0.1005E+02
   8.400  0.9427E+00  0.1006E+02
   8.410  0.9451E+00  0.1007E+02
   8.420  0.9477E+00  0.1008E+02
   8.430  0.9502E+00  0.1009E+02
   8.440  0.9527E+00  0.1010E+02
   8.450  0.9551E+00  0.1011E+02
   8.460  0.9575E+00  0.1012E+02
   8.470  0.9598E+00  0.1013E+02
   8.480  0.9619E+00  0.1014E+02
   8.490  0.9640E+00  0.1015E+02
   8.500  0.9660E+00  0.1016E+02
   8.510  0.9679E+00  0.1017E+02
   8.520  0.9698E+00  0.1018E+02
   8.530  0.9716E+00  0.1019E+02
   8.540  0.9735E+00  0.1020E+02
   8.550  0.9753E+00  0.1020E+02
   8.560  0.9772E+00  0.1021E+02
   8.570  0.9791E+00  0.1022E+02
   8.580  0.9811E+00  0.1023E+02
   8.590  0.9832E+00  0.1024E+02
   8.600  0.9853E+00  0.1025E+02
   8.610  0.9876E+00  0.1026E+02
   8.620  0.9899E+00  0.1027E+02
   8.630  0.9922E+00  0.1028E+02
   8.640  0.9946E+00  0.1029E+02
   8.650  0.9970E+00  0.1030E+02
   8.660  0.9994E+00  0.1031E+02
   8.670  0.1002E+01  0.1032E+02
   8.680  0.1004E+01  0.1033E+02
   8.690  0.1006E+01  0.1034E+02
   8.700  0.1008E+01  0.1035E+02
   8.710  0.1010E+01  0.1036E+02
   8.720  0.1012E+01  0.1037E+02
   8.730  0.1013E+01  0.1038E+02
   8.740  0.1014E+01  0.1039E+02
   8.750  0.1015E+01  0.1040E+02
   8.760  0.1016E+01  0.1041E+02
   8.770  0.1017E+01  0.1042E+02
   8.780  0.1017E+01  0.1044E+02
   8.790  0.1018E+01  0.1045E+02
   8.800  0.1018E+01  0.1046E+02
   8.810  0.1018E+01  0.1047E+02
   8.820  0.1018E+01  0.1048E+02
   8.830  0.1017E+01  0.1049E+02
   8.840  0.1017E+01  0.1050E+02
   8.850  0.1017E+01  0.1051E+02
   8.860  0.1018E+01  0.1052E+02
   8.870  0.1018E+01  0.1053E+02
   8.880  0.1019E+01  0.1054E+02
   8.890  0.1020E+01  0.1055E+02
   8.900  0.1021E+01  0.1056E+02
   8.910  0.1023E+01  0.1057E+02
   8.920  0.1026E+01  0.1058E+02
   8.930  0.1028E+01  0.1059E+02
   8.940  0.1032E+01  0.1060E+02
   8.950  0.1036E+01  0.1061E+02
   8.960  0.1041E+01  0.1062E+02
   8.970  0.1047E+01  0.1063E+02
   8.980  0.1054E+01  0.1064E+02
   8.990  0.1061E+01  0.1065E+02
   9.000  0.1069E+01  0.1066E+02
   9.010  0.1078E+01  0.1067E+02
   9.020  0.1088E+01  0.1068E+02
   9.030  0.1099E+01  0.1069E+02
   9.040  0.1111E+01  0.1071E+02
   9.050  0.1124E+01  0.1072E+02
   9.060  0.1138E+01  0.1073E+02
   9.070  0.1153E+01  0.1074E+02
   9.080  0.1169E+01  0.1075E+02
   9.090  0.1186E+01  0.1076E+02
   9.100  0.1204E+01  0.1077E+02
   9.110  0.1222E+01  0.1079E+02
   9.120  0.1242E+01  0.1080E+02
   9.130  0.1262E+01  0.1081E+02
   9.140  0.1283E+01  0.1082E+02
   9.150  0.1305E+01  0.1084E+02
   9.160  0.1327E+01  0.1085E+02
   9.170  0.1349E+01  0.1086E+02
   9.180  0.1371E+01  0.1088E+02
   9.190  0.1394E+01  0.1089E+02
   9.200  0.1416E+01  0.1091E+02
   9.210  0.1438E+01  0.1092E+02
   9.220  0.1460E+01  0.1094E+02
   9.230  0.1481E+01  0.1095E+02
   9.240  0.1501E+01  0.1097E+02
   9.250  0.1520E+01  0.1098E+02
   9.260  0.1538E+01  0.1100E+02
   9.270  0.1554E+01  0.1101E+02
   9.280  0.1570E+01  0.1103E+02
   9.290  0.1583E+01  0.1104E+02
   9.300  0.1596E+01  0.1106E+02
   9.310  0.1606E+01  0.1108E+02
   9.320  0.1616E+01  0.1109E+02
   9.330  0.1623E+01  0.1111E+02
   9.340  0.1629E+01  0.1112E+02
   9.350  0.1633E+01  0.1114E+02
   9.360  0.1636E+01  0.1116E+02
   9.370  0.1638E+01  0.1117E+02
   9.380  0.1638E+01  0.1119E+02
   9.390  0.1636E+01  0.1121E+02
   9.400  0.1633E+01  0.1122E+02
   9.410  0.1630E+01  0.1124E+02
   9.420  0.1624E+01  0.1125E+02
   9.430  0.1618E+01  0.1127E+02
   9.440  0.1611E+01  0.1129E+02
   9.450  0.1603E+01  0.1130E+02
   9.460  0.1594E+01  0.1132E+02
   9.470  0.1585E+01  0.1133E+02
   9.480  0.1575E+01  0.1135E+02
   9.490  0.1564E+01  0.1137E+02
   9.500  0.1553E+01  0.1138E+02
   9.510  0.1541E+01  0.1140E+02
   9.520  0.1529E+01  0.1141E+02
   9.530  0.1517E+01  0.1143E+02
   9.540  0.1505E+01  0.1144E+02
   9.550  0.1492E+01  0.1146E+02
   9.560  0.1480E+01  0.1147E+02
   9.570  0.1467E+01  0.1149E+02
   9.580  0.1454E+01  0.1150E+02
   9.590  0.1441E+01  0.1152E+02
   9.600  0.1429E+01  0.1153E+02
   9.610  0.1416E+01  0.1154E+02
   9.620  0.1403E+01  0.1156E+02
   9.630  0.1391E+01  0.1157E+02
   9.640  0.1378E+01  0.1159E+02
   9.650  0.1365E+01  0.1160E+02
   9.660  0.1352E+01  0.1161E+02
   9.670  0.1339E+01  0.1163E+02
   9.680  0.1326E+01  0.1164E+02
   9.690  0.1313E+01  0.1165E+02
   9.700  0.1299E+01  0.1167E+02
   9.710  0.1286E+01  0.1168E+02
   9.720  0.1273E+01  0.1169E+02
   9.730  0.1260E+01  0.1170E+02
   9.740  0.1247E+01  0.1172E+02
   9.750  0.1234E+01  0.1173E+02
   9.760  0.1221E+01  0.1174E+02
   9.770  0.1209E+01  0.1175E+02
   9.780  0.1197E+01  0.1177E+02
   9.790  0.1185E+01  0.1178E+02
   9.800  0.1175E+01  0.1179E+02
   9.810  0.1165E+01  0.1180E+02
   9.820  0.1155E+01  0.1181E+02
   9.830  0.1146E+01  0.1182E+02
   9.840  0.1139E+01  0.1183E+02
   9.850  0.1132E+01  0.1185E+02
   9.860  0.1125E+01  0.1186E+02
   9.870  0.1120E+01  0.1187E+02
   9.880  0.1116E+01  0.1188E+02
   9.890  0.1112E+01  0.1189E+02
   9.900  0.1109E+01  0.1190E+02
   9.910  0.1107E+01  0.1191E+02
   9.920  0.1106E+01  0.1192E+02
   9.930  0.1106E+01  0.1194E+02
   9.940  0.1105E+01  0.1195E+02
   9.950  0.1106E+01  0.1196E+02
   9.960  0.1107E+01  0.1197E+02
   9.970  0.1108E+01  0.1198E+02
   9.980  0.1109E+01  0.1199E+02
   9.990  0.1110E+01  0.1200E+02
  10.000  0.1112E+01  0.1201E+02
  10.010  0.1113E+01  0.1202E+02
  10.020  0.1114E+01  0.1203E+02
  10.030  0.1115E+01  0.1205E+02
  10.040  0.1116E+01  0.1206E+02
  10.050  0.1116E+01  0.1207E+02
  10.060  0.1116E+01  0.1208E+02
  10.070  0.1115E+01  0.1209E+02
  10.080  0.1114E+01  0.1210E+02
  10.090  0.1113E+01  0.1211E+02
  10.100  0.1111E+01  0.1212E+02
  10.110  0.1109E+01  0.1214E+02
  10.120  0.1107E+01  0.1215E+02
  10.130  0.1104E+01  0.1216E+02
  10.140  0.1101E+01  0.1217E+02
  10.150  0.1099E+01  0.1218E+02
  10.160  0.1096E+01  0.1219E+02
  10.170  0.1093E+01  0.1220E+02
  10.180  0.1091E+01  0.1221E+02
  10.190  0.1089E+01  0.1222E+02
  10.200  0.1087E+01  0.1223E+02
  10.210  0.1086E+01  0.1224E+02
  10.220  0.1085E+01  0.1226E+02
  10.230  0.1085E+01  0.1227E+02
  10.240  0.1085E+01  0.1228E+02
  10.250  0.1087E+01  0.1229E+02
  10.260  0.1089E+01  0.1230E+02
  10.270  0.1092E+01  0.1231E+02
  10.280  0.1097E+01  0.1232E+02
  10.290  0.1102E+01  0.1233E+02
  10.300  0.1108E+01  0.1234E+02
  10.310  0.1115E+01  0.1235E+02
  10.320  0.1123E+01  0.1237E+02
  10.330  0.1131E+01  0.1238E+02
  10.340  0.1141E+01  0.1239E+02
  10.350  0.1152E+01  0.1240E+02
  10.360  0.1163E+01  0.1241E+02
  10.370  0.1175E+01  0.1242E+02
  10.380  0.1188E+01  0.1243E+02
  10.390  0.1201E+01  0.1245E+02
  10.400  0.1214E+01  0.1246E+02
  10.410  0.1228E+01  0.1247E+02
  10.420  0.1242E+01  0.1248E+02
  10.430  0.1256E+01  0.1250E+02
  10.440  0.1270E+01  0.1251E+02
  10.450  0.1284E+01  0.1252E+02
  10.460  0.1298E+01  0.1253E+02
  10.470  0.1311E+01  0.1255E+02
  10.480  0.1324E+01  0.1256E+02
  10.490  0.1337E+01  0.1257E+02
  10.500  0.1349E+01  0.1259E+02
  10.510  0.1361E+01  0.1260E+02
  10.520  0.1372E+01  0.1262E+02
  10.530  0.1382E+01  0.1263E+02
  10.540  0.1392E+01  0.1264E+02
  10.550  0.1400E+01  0.1266E+02
  10.560  0.1408E+01  0.1267E+02
  10.570  0.1416E+01  0.1269E+02
  10.580  0.1422E+01  0.1270E+02
  10.590  0.1428E+01  0.1271E+02
  10.600  0.1433E+01  0.1273E+02
  10.610  0.1438E+01  0.1274E+02
  10.620  0.1442E+01  0.1276E+02
  10.630  0.1445E+01  0.1277E+02
  10.640  0.1448E+01  0.1279E+02
  10.650  0.1450E+01  0.1280E+02
  10.660  0.1452E+01  0.1281E+02
  10.670  0.1454E+01  0.1283E+02
  10.680  0.1455E+01  0.1284E+02
  10.690  0.1456E+01  0.1286E+02
  10.700  0.1457E+01  0.1287E+02
  10.710  0.1457E+01  0.1289E+02
  10.720  0.1458E+01  0.1290E+02
  10.730  0.1458E+01  0.1292E+02
  10.740  0.1458E+01  0.1293E+02
  10.750  0.1457E+01  0.1295E+02
  10.760  0.1456E+01  0.1296E+02
  10.770  0.1456E+01  0.1298E+02
  10.780  0.1455E+01  0.1299E+02
  10.790  0.1453E+01  0.1300E+02
  10.800  0.1452E+01  0.1302E+02
  10.810  0.1450E+01  0.1303E+02
  10.820  0.1447E+01  0.1305E+02
  10.830  0.1445E+01  0.1306E+02
  10.840  0.1442E+01  0.1308E+02
  10.850  0.1439E+01  0.1309E+02
  10.860  0.1435E+01  0.1311E+02
  10.870  0.1431E+01  0.1312E+02
  10.880  0.1426E+01  0.1313E+02
  10.890  0.1422E+01  0.1315E+02
  10.900  0.1416E+01  0.1316E+02
  10.910  0.1411E+01  0.1318E+02
  10.920  0.1405E+01  0.1319E+02
  10.930  0.1399E+01  0.1320E+02
  10.940  0.1393E+01  0.1322E+02
  10.950  0.1386E+01  0.1323E+02
  10.960  0.1379E+01  0.1325E+02
  10.970  0.1371E+01  0.1326E+02
  10.980  0.1364E+01  0.1327E+02
  10.990  0.1356E+01  0.1329E+02
  11.000  0.1348E+01  0.1330E+02
  11.010  0.1340E+01  0.1331E+02
  11.020  0.1331E+01  0.1333E+02
  11.030  0.1323E+01  0.1334E+02
  11.040  0.1314E+01  0.1335E+02
  11.050  0.1305E+01  0.1337E+02
  11.060  0.1297E+01  0.1338E+02
  11.070  0.1288E+01  0.1339E+02
  11.080  0.1279E+01  0.1341E+02
  11.090  0.1270E+01  0.1342E+02
  11.100  0.1262E+01  0.1343E+02
  11.110  0.1254E+01  0.1344E+02
  11.120  0.1245E+01  0.1346E+02
  11.130  0.1238E+01  0.1347E+02
  11.140  0.1230E+01  0.1348E+02
  11.150  0.1223E+01  0.1349E+02
  11.160  0.1216E+01  0.1350E+02
  11.170  0.1209E+01  0.1352E+02
  11.180  0.1203E+01  0.1353E+02
  11.190  0.1197E+01  0.1354E+02
  11.200  0.1192E+01  0.1355E+02
  11.210  0.1187E+01  0.1356E+02
  11.220  0.1183E+01  0.1358E+02
  11.230  0.1179E+01  0.1359E+02
  11.240  0.1175E+01  0.1360E+02
  11.250  0.1171E+01  0.1361E+02
  11.260  0.1168E+01  0.1362E+02
  11.270  0.1165E+01  0.1363E+02
  11.280  0.1162E+01  0.1365E+02
  11.290  0.1159E+01  0.1366E+02
  11.300  0.1156E+01  0.1367E+02
  11.310  0.1154E+01  0.1368E+02
  11.320  0.1151E+01  0.1369E+02
  11.330  0.1148E+01  0.1370E+02
  11.340  0.1144E+01  0.1372E+02
  11.350  0.1141E+01  0.1373E+02
  11.360  0.1138E+01  0.1374E+02
  11.370  0.1134E+01  0.1375E+02
  11.380  0.1130E+01  0.1376E+02
  11.390  0.1126E+01  0.1377E+02
  11.400  0.1121E+01  0.1378E+02
  11.410  0.1117E+01  0.1379E+02
  11.420  0.1112E+01  0.1381E+02
  11.430  0.1107E+01  0.1382E+02
  11.440  0.1102E+01  0.1383E+02
  11.450  0.1097E+01  0.1384E+02
  11.460  0.1092E+01  0.1385E+02
  11.470  0.1087E+01  0.1386E+02
  11.480  0.1082E+01  0.1387E+02
  11.490  0.1077E+01  0.1388E+02
  11.500  0.1072E+01  0.1389E+02
  11.510  0.1068E+01  0.1390E+02
  11.520  0.1063E+01  0.1391E+02
  11.530  0.1058E+01  0.1392E+02
  11.540  0.1054E+01  0.1394E+02
  11.550  0.1050E+01  0.1395E+02
  11.560  0.1045E+01  0.1396E+02
  11.570  0.1041E+01  0.1397E+02
  11.580  0.1037E+01  0.1398E+02
  11.590  0.1033E+01  0.1399E+02
  11.600  0.1030E+01  0.1400E+02
  11.610  0.1026E+01  0.1401E+02
  11.620  0.1023E+01  0.1402E+02
  11.630  0.1020E+01  0.1403E+02
  11.640  0.1017E+01  0.1404E+02
  11.650  0.1014E+01  0.1405E+02
  11.660  0.1012E+01  0.1406E+02
  11.670  0.1009E+01  0.1407E+02
  11.680  0.1007E+01  0.1408E+02
  11.690  0.1006E+01  0.1409E+02
  11.700  0.1004E+01  0.1410E+02
  11.710  0.1003E+01  0.1411E+02
  11.720  0.1001E+01  0.1412E+02
  11.730  0.1001E+01  0.1413E+02
  11.740  0.9999E+00  0.1414E+02
  11.750  0.9993E+00  0.1415E+02
  11.760  0.9989E+00  0.1416E+02
  11.770  0.9986E+00  0.1417E+02
  11.780  0.9984E+00  0.1418E+02
  11.790  0.9981E+00  0.1419E+02
  11.800  0.9979E+00  0.1420E+02
  11.810  0.9976E+00  0.1421E+02
  11.820  0.9973E+00  0.1422E+02
  11.830  0.9968E+00  0.1423E+02
  11.840  0.9961E+00  0.1424E+02
  11.850  0.9953E+00  0.1425E+02
  11.860  0.9943E+00  0.1426E+02
  11.870  0.9930E+00  0.1427E+02
  11.880  0.9916E+00  0.1428E+02
  11.890  0.9899E+00  0.1429E+02
  11.900  0.9880E+00  0.1430E+02
  11.910  0.9859E+00  0.1431E+02
  11.920  0.9836E+00  0.1432E+02
  11.930  0.9812E+00  0.1433E+02
  11.940  0.9786E+00  0.1434E+02
  11.950  0.9758E+00  0.1435E+02
  11.960  0.9730E+00  0.1436E+02
  11.970  0.9700E+00  0.1437E+02
  11.980  0.9669E+00  0.1438E+02
  11.990  0.9638E+00  0.1439E+02
  12.000  0.9606E+00  0.1440E+02
  12.010  0.9574E+00  0.1441E+02
  12.020  0.9542E+00  0.1441E+02
  12.030  0.9510E+00  0.1442E+02
  12.040  0.9478E+00  0.1443E+02
  12.050  0.9446E+00  0.1444E+02
  12.060  0.9415E+00  0.1445E+02
  12.070  0.9386E+00  0.1446E+02
  12.080  0.9357E+00  0.1447E+02
  12.090  0.9331E+00  0.1448E+02
  12.100  0.9306E+00  0.1449E+02
  12.110  0.9283E+00  0.1450E+02
  12.120  0.9264E+00  0.1451E+02
  12.130  0.9247E+00  0.1452E+02
  12.140  0.9233E+00  0.1453E+02
  12.150  0.9222E+00  0.1454E+02
  12.160  0.9216E+00  0.1455E+02
  12.170  0.9213E+00  0.1455E+02
  12.180  0.9213E+00  0.1456E+02
  12.190  0.9218E+00  0.1457E+02
  12.200  0.9226E+00  0.1458E+02
  12.210  0.9238E+00  0.1459E+02
  12.220  0.9253E+00  0.1460E+02
  12.230  0.9271E+00  0.1461E+02
  12.240  0.9293E+00  0.1462E+02
  12.250  0.9316E+00  0.1463E+02
  12.260  0.9341E+00  0.1464E+02
  12.270  0.9368E+00  0.1465E+02
  12.280  0.9396E+00  0.1466E+02
  12.290  0.9424E+00  0.1467E+02
  12.300  0.9453E+00  0.1468E+02
  12.310  0.9481E+00  0.1469E+02
  12.320  0.9508E+00  0.1469E+02
  12.330  0.9535E+00  0.1470E+02
  12.340  0.9559E+00  0.1471E+02
  12.350  0.9581E+00  0.1472E+02
  12.360  0.9602E+00  0.1473E+02
  12.370  0.9619E+00  0.1474E+02
  12.380  0.9634E+00  0.1475E+02
  12.390  0.9645E+00  0.1476E+02
  12.400  0.9654E+00  0.1477E+02
  12.410  0.9659E+00  0.1478E+02
  12.420  0.9661E+00  0.1479E+02
  12.430  0.9659E+00  0.1480E+02
  12.440  0.9653E+00  0.1481E+02
  12.450  0.9644E+00  0.1482E+02
  12.460  0.9632E+00  0.1483E+02
  12.470  0.9616E+00  0.1484E+02
  12.480  0.9597E+00  0.1485E+02
  12.490  0.9575E+00  0.1486E+02
  12.500  0.9550E+00  0.1487E+02
  12.510  0.9522E+00  0.1488E+02
  12.520  0.9491E+00  0.1489E+02
  12.530  0.9457E+00  0.1490E+02
  12.540  0.9421E+00  0.1491E+02
  12.550  0.9383E+00  0.1492E+02
  12.560  0.9343E+00  0.1492E+02
  12.570  0.9300E+00  0.1493E+02
  12.580  0.9256E+00  0.1494E+02
  12.590  0.9211E+00  0.1495E+02
  12.600  0.9163E+00  0.1496E+02
  12.610  0.9115E+00  0.1497E+02
  12.620  0.9065E+00  0.1498E+02
  12.630  0.9015E+00  0.1499E+02
  12.640  0.8963E+00  0.1500E+02
  12.650  0.8911E+00  0.1501E+02
  12.660  0.8859E+00  0.1502E+02
  12.670  0.8807E+00  0.1502E+02
  12.680  0.8754E+00  0.1503E+02
  12.690  0.8702E+00  0.1504E+02
  12.700  0.8651E+00  0.1505E+02
  12.710  0.8600E+00  0.1506E+02
  12.720  0.8551E+00  0.1507E+02
  12.730  0.8502E+00  0.1508E+02
  12.740  0.8455E+00  0.1508E+02
  12.750  0.8409E+00  0.1509E+02
  12.760  0.8365E+00  0.1510E+02
  12.770  0.8322E+00  0.1511E+02
  12.780  0.8281E+00  0.1512E+02
  12.790  0.8241E+00  0.1513E+02
  12.800  0.8203E+00  0.1513E+02
  12.810  0.8166E+00  0.1514E+02
  12.820  0.8130E+00  0.1515E+02
  12.830  0.8095E+00  0.1516E+02
  12.840  0.8061E+00  0.1517E+02
  12.850  0.8028E+00  0.1517E+02
  12.860  0.7995E+00  0.1518E+02
  12.870  0.7962E+00  0.1519E+02
  12.880  0.7930E+00  0.1520E+02
  12.890  0.7898E+00  0.1521E+02
  12.900  0.7866E+00  0.1521E+02
  12.910  0.7834E+00  0.1522E+02
  12.920  0.7802E+00  0.1523E+02
  12.930  0.7771E+00  0.1524E+02
  12.940  0.7740E+00  0.1525E+02
  12.950  0.7711E+00  0.1525E+02
  12.960  0.7682E+00  0.1526E+02
  12.970  0.7654E+00  0.1527E+02
  12.980  0.7628E+00  0.1528E+02
  12.990  0.7604E+00  0.1528E+02
  13.000  0.7581E+00  0.1529E+02
  13.010  0.7561E+00  0.1530E+02
  13.020  0.7543E+00  0.1531E+02
  13.030  0.7527E+00  0.1531E+02
  13.040  0.7514E+00  0.1532E+02
  13.050  0.7503E+00  0.1533E+02
  13.060  0.7494E+00  0.1534E+02
  13.070  0.7487E+00  0.1534E+02
  13.080  0.7482E+00  0.1535E+02
  13.090  0.7479E+00  0.1536E+02
  13.100  0.7476E+00  0.1537E+02
  13.110  0.7474E+00  0.1537E+02
  13.120  0.7472E+00  0.1538E+02
  13.130  0.7470E+00  0.1539E+02
  13.140  0.7467E+00  0.1540E+02
  13.150  0.7463E+00  0.1540E+02
  13.160  0.7458E+00  0.1541E+02
  13.170  0.7450E+00  0.1542E+02
  13.180  0.7440E+00  0.1543E+02
  13.190  0.7427E+00  0.1543E+02
  13.200  0.7411E+00  0.1544E+02
  13.210  0.7392E+00  0.1545E+02
  13.220  0.7369E+00  0.1546E+02
  13.230  0.7344E+00  0.1546E+02
  13.240  0.7315E+00  0.1547E+02
  13.250  0.7283E+00  0.1548E+02
  13.260  0.7247E+00  0.1548E+02
  13.270  0.7209E+00  0.1549E+02
  13.280  0.7168E+00  0.1550E+02
  13.290  0.7124E+00  0.1551E+02
  13.300  0.7077E+00  0.1551E+02
  13.310  0.7028E+00  0.1552E+02
  13.320  0.6976E+00  0.1553E+02
  13.330  0.6922E+00  0.1553E+02
  13.340  0.6866E+00  0.1554E+02
  13.350  0.6807E+00  0.1555E+02
  13.360  0.6745E+00  0.1555E+02
  13.370  0.6681E+00  0.1556E+02
  13.380  0.6614E+00  0.1557E+02
  13.390  0.6544E+00  0.1557E+02
  13.400  0.6471E+00  0.1558E+02
  13.410  0.6395E+00  0.1559E+02
  13.420  0.6315E+00  0.1559E+02
  13.430  0.6232E+00  0.1560E+02
  13.440  0.6146E+00  0.1561E+02
  13.450  0.6056E+00  0.1561E+02
  13.460  0.5963E+00  0.1562E+02
  13.470  0.5866E+00  0.1562E+02
  13.480  0.5766E+00  0.1563E+02
  13.490  0.5663E+00  0.1564E+02
  13.500  0.5557E+00  0.1564E+02
  13.510  0.5449E+00  0.1565E+02
  13.520  0.5338E+00  0.1565E+02
  13.530  0.5227E+00  0.1566E+02
  13.540  0.5115E+00  0.1566E+02
  13.550  0.5002E+00  0.1567E+02
  13.560  0.4890E+00  0.1567E+02
  13.570  0.4778E+00  0.1568E+02
  13.580  0.4668E+00  0.1568E+02
  13.590  0.4561E+00  0.1569E+02
  13.600  0.4456E+00  0.1569E+02
  13.610  0.4354E+00  0.1569E+02
  13.620  0.4256E+00  0.1570E+02
  13.630  0.4162E+00  0.1570E+02
  13.640  0.4072E+00  0.1571E+02
  13.650  0.3986E+00  0.1571E+02
  13.660  0.3905E+00  0.1572E+02
  13.670  0.3829E+00  0.1572E+02
  13.680  0.3757E+00  0.1572E+02
  13.690  0.3690E+00  0.1573E+02
  13.700  0.3627E+00  0.1573E+02
  13.710  0.3569E+00  0.1573E+02
  13.720  0.3514E+00  0.1574E+02
  13.730  0.3463E+00  0.1574E+02
  13.740  0.3416E+00  0.1574E+02
  13.750  0.3371E+00  0.1575E+02
  13.760  0.3329E+00  0.1575E+02
  13.770  0.3290E+00  0.1575E+02
  13.780  0.3252E+00  0.1576E+02
  13.790  0.3216E+00  0.1576E+02
  13.800  0.3182E+00  0.1576E+02
  13.810  0.3148E+00  0.1577E+02
  13.820  0.3115E+00  0.1577E+02
  13.830  0.3082E+00  0.1577E+02
  13.840  0.3050E+00  0.1578E+02
  13.850  0.3017E+00  0.1578E+02
  13.860  0.2984E+00  0.1578E+02
  13.870  0.2951E+00  0.1579E+02
  13.880  0.2917E+00  0.1579E+02
  13.890  0.2882E+00  0.1579E+02
  13.900  0.2848E+00  0.1579E+02
  13.910  0.2813E+00  0.1580E+02
  13.920  0.2777E+00  0.1580E+02
  13.930  0.2742E+00  0.1580E+02
  13.940  0.2706E+00  0.1580E+02
  13.950  0.2671E+00  0.1581E+02
  13.960  0.2636E+00  0.1581E+02
  13.970  0.2601E+00  0.1581E+02
  13.980  0.2567E+00  0.1582E+02
  13.990  0.2534E+00  0.1582E+02
  14.000  0.2502E+00  0.1582E+02
  14.010  0.2471E+00  0.1582E+02
  14.020  0.2441E+00  0.1583E+02
  14.030  0.2412E+00  0.1583E+02
  14.040  0.2385E+00  0.1583E+02
  14.050  0.2358E+00  0.1583E+02
  14.060  0.2333E+00  0.1583E+02
  14.070  0.2309E+00  0.1584E+02
  14.080  0.2286E+00  0.1584E+02
  14.090  0.2265E+00  0.1584E+02
  14.100  0.2244E+00  0.1584E+02
  14.110  0.2224E+00  0.1585E+02
  14.120  0.2206E+00  0.1585E+02
  14.130  0.2188E+00  0.1585E+02
  14.140  0.2171E+00  0.1585E+02
  14.150  0.2155E+00  0.1585E+02
  14.160  0.2139E+00  0.1586E+02
  14.170  0.2125E+00  0.1586E+02
  14.180  0.2111E+00  0.1586E+02
  14.190  0.2097E+00  0.1586E+02
  14.200  0.2084E+00  0.1587E+02
  14.210  0.2072E+00  0.1587E+02
  14.220  0.2060E+00  0.1587E+02
  14.230  0.2047E+00  0.1587E+02
  14.240  0.2035E+00  0.1587E+02
  14.250  0.2023E+00  0.1588E+02
  14.260  0.2011E+00  0.1588E+02
  14.270  0.1998E+00  0.1588E+02
  14.280  0.1985E+00  0.1588E+02
  14.290  0.1971E+00  0.1588E+02
  14.300  0.1956E+00  0.1589E+02
  14.310  0.1941E+00  0.1589E+02
  14.320  0.1924E+00  0.1589E+02
  14.330  0.1907E+00  0.1589E+02
  14.340  0.1889E+00  0.1589E+02
  14.350  0.1869E+00  0.1590E+02
  14.360  0.1849E+00  0.1590E+02
  14.370  0.1828E+00  0.1590E+02
  14.380  0.1806E+00  0.1590E+02
  14.390  0.1784E+00  0.1590E+02
  14.400  0.1761E+00  0.1590E+02
  14.410  0.1737E+00  0.1591E+02
  14.420  0.1714E+00  0.1591E+02
  14.430  0.1690E+00  0.1591E+02
  14.440  0.1666E+00  0.1591E+02
  14.450  0.1642E+00  0.1591E+02
  14.460  0.1619E+00  0.1591E+02
  14.470  0.1596E+00  0.1592E+02
  14.480  0.1574E+00  0.1592E+02
  14.490  0.1552E+00  0.1592E+02
  14.500  0.1531E+00  0.1592E+02
  14.510  0.1511E+00  0.1592E+02
  14.520  0.1492E+00  0.1592E+02
  14.530  0.1474E+00  0.1592E+02
  14.540  0.1457E+00  0.1593E+02
  14.550  0.1441E+00  0.1593E+02
  14.560  0.1427E+00  0.1593E+02
  14.570  0.1412E+00  0.1593E+02
  14.580  0.1399E+00  0.1593E+02
  14.590  0.1387E+00  0.1593E+02
  14.600  0.1375E+00  0.1593E+02
  14.610  0.1364E+00  0.1594E+02
  14.620  0.1353E+00  0.1594E+02
  14.630  0.1343E+00  0.1594E+02
  14.640  0.1332E+00  0.1594E+02
  14.650  0.1322E+00  0.1594E+02
  14.660  0.1311E+00  0.1594E+02
  14.670  0.1300E+00  0.1594E+02
  14.680  0.1289E+00  0.1595E+02
  14.690  0.1277E+00  0.1595E+02
  14.700  0.1265E+00  0.1595E+02
  14.710  0.1252E+00  0.1595E+02
  14.720  0.1238E+00  0.1595E+02
  14.730  0.1223E+00  0.1595E+02
  14.740  0.1208E+00  0.1595E+02
  14.750  0.1192E+00  0.1595E+02
  14.760  0.1176E+00  0.1596E+02
  14.770  0.1158E+00  0.1596E+02
  14.780  0.1140E+00  0.1596E+02
  14.790  0.1122E+00  0.1596E+02
  14.800  0.1104E+00  0.1596E+02
  14.810  0.1085E+00  0.1596E+02
  14.820  0.1066E+00  0.1596E+02
  14.830  0.1047E+00  0.1596E+02
  14.840  0.1028E+00  0.1596E+02
  14.850  0.1009E+00  0.1596E+02
  14.860  0.9908E-01  0.1597E+02
  14.870  0.9727E-01  0.1597E+02
  14.880  0.9550E-01  0.1597E+02
  14.890  0.9378E-01  0.1597E+02
  14.900  0.9210E-01  0.1597E+02
  14.910  0.9049E-01  0.1597E+02
  14.920  0.8892E-01  0.1597E+02
  14.930  0.8741E-01  0.1597E+02
  14.940  0.8594E-01  0.1597E+02
  14.950  0.8453E-01  0.1597E+02
  14.960  0.8316E-01  0.1597E+02
  14.970  0.8183E-01  0.1598E+02
  14.980  0.8053E-01  0.1598E+02
  14.990  0.7925E-01  0.1598E+02
  15.000  0.7799E-01  0.1598E+02
