#  E (eV)   dos(E)     Int dos(E) EFermi =   5.214 eV
  -7.392  0.1760E+00  0.1760E-02
  -7.382  0.1941E+00  0.3701E-02
  -7.372  0.2138E+00  0.5839E-02
  -7.362  0.2353E+00  0.8193E-02
  -7.352  0.2588E+00  0.1078E-01
  -7.342  0.2843E+00  0.1362E-01
  -7.332  0.3119E+00  0.1674E-01
  -7.322  0.3418E+00  0.2016E-01
  -7.312  0.3741E+00  0.2390E-01
  -7.302  0.4089E+00  0.2799E-01
  -7.292  0.4462E+00  0.3245E-01
  -7.282  0.4860E+00  0.3731E-01
  -7.272  0.5284E+00  0.4260E-01
  -7.262  0.5735E+00  0.4833E-01
  -7.252  0.6210E+00  0.5454E-01
  -7.242  0.6709E+00  0.6125E-01
  -7.232  0.7231E+00  0.6848E-01
  -7.222  0.7773E+00  0.7625E-01
  -7.212  0.8333E+00  0.8459E-01
  -7.202  0.8908E+00  0.9350E-01
  -7.192  0.9494E+00  0.1030E+00
  -7.182  0.1009E+01  0.1131E+00
  -7.172  0.1068E+01  0.1238E+00
  -7.162  0.1127E+01  0.1350E+00
  -7.152  0.1185E+01  0.1469E+00
  -7.142  0.1242E+01  0.1593E+00
  -7.132  0.1296E+01  0.1723E+00
  -7.122  0.1348E+01  0.1857E+00
  -7.112  0.1397E+01  0.1997E+00
  -7.102  0.1442E+01  0.2141E+00
  -7.092  0.1483E+01  0.2290E+00
  -7.082  0.1519E+01  0.2441E+00
  -7.072  0.1551E+01  0.2597E+00
  -7.062  0.1577E+01  0.2754E+00
  -7.052  0.1599E+01  0.2914E+00
  -7.042  0.1615E+01  0.3076E+00
  -7.032  0.1626E+01  0.3238E+00
  -7.022  0.1632E+01  0.3401E+00
  -7.012  0.1634E+01  0.3565E+00
  -7.002  0.1630E+01  0.3728E+00
  -6.992  0.1623E+01  0.3890E+00
  -6.982  0.1611E+01  0.4051E+00
  -6.972  0.1596E+01  0.4211E+00
  -6.962  0.1578E+01  0.4369E+00
  -6.952  0.1557E+01  0.4524E+00
  -6.942  0.1534E+01  0.4678E+00
  -6.932  0.1508E+01  0.4829E+00
  -6.922  0.1482E+01  0.4977E+00
  -6.912  0.1453E+01  0.5122E+00
  -6.902  0.1424E+01  0.5265E+00
  -6.892  0.1395E+01  0.5404E+00
  -6.882  0.1365E+01  0.5541E+00
  -6.872  0.1335E+01  0.5674E+00
  -6.862  0.1306E+01  0.5805E+00
  -6.852  0.1277E+01  0.5932E+00
  -6.842  0.1249E+01  0.6057E+00
  -6.832  0.1222E+01  0.6180E+00
  -6.822  0.1196E+01  0.6299E+00
  -6.812  0.1171E+01  0.6416E+00
  -6.802  0.1147E+01  0.6531E+00
  -6.792  0.1124E+01  0.6643E+00
  -6.782  0.1103E+01  0.6754E+00
  -6.772  0.1082E+01  0.6862E+00
  -6.762  0.1063E+01  0.6968E+00
  -6.752  0.1044E+01  0.7073E+00
  -6.742  0.1027E+01  0.7175E+00
  -6.732  0.1010E+01  0.7276E+00
  -6.722  0.9935E+00  0.7376E+00
  -6.712  0.9776E+00  0.7473E+00
  -6.702  0.9621E+00  0.7570E+00
  -6.692  0.9468E+00  0.7664E+00
  -6.682  0.9318E+00  0.7757E+00
  -6.672  0.9168E+00  0.7849E+00
  -6.662  0.9021E+00  0.7939E+00
  -6.652  0.8874E+00  0.8028E+00
  -6.642  0.8729E+00  0.8115E+00
  -6.632  0.8587E+00  0.8201E+00
  -6.622  0.8447E+00  0.8286E+00
  -6.612  0.8312E+00  0.8369E+00
  -6.602  0.8180E+00  0.8451E+00
  -6.592  0.8055E+00  0.8531E+00
  -6.582  0.7935E+00  0.8611E+00
  -6.572  0.7823E+00  0.8689E+00
  -6.562  0.7719E+00  0.8766E+00
  -6.552  0.7623E+00  0.8842E+00
  -6.542  0.7536E+00  0.8918E+00
  -6.532  0.7458E+00  0.8992E+00
  -6.522  0.7388E+00  0.9066E+00
  -6.512  0.7327E+00  0.9139E+00
  -6.502  0.7274E+00  0.9212E+00
  -6.492  0.7229E+00  0.9284E+00
  -6.482  0.7190E+00  0.9356E+00
  -6.472  0.7158E+00  0.9428E+00
  -6.462  0.7132E+00  0.9499E+00
  -6.452  0.7110E+00  0.9570E+00
  -6.442  0.7091E+00  0.9641E+00
  -6.432  0.7075E+00  0.9712E+00
  -6.422  0.7061E+00  0.9783E+00
  -6.412  0.7048E+00  0.9853E+00
  -6.402  0.7034E+00  0.9923E+00
  -6.392  0.7019E+00  0.9994E+00
  -6.382  0.7002E+00  0.1006E+01
  -6.372  0.6981E+00  0.1013E+01
  -6.362  0.6956E+00  0.1020E+01
  -6.352  0.6926E+00  0.1027E+01
  -6.342  0.6890E+00  0.1034E+01
  -6.332  0.6848E+00  0.1041E+01
  -6.322  0.6800E+00  0.1048E+01
  -6.312  0.6744E+00  0.1054E+01
  -6.302  0.6683E+00  0.1061E+01
  -6.292  0.6615E+00  0.1068E+01
  -6.282  0.6542E+00  0.1074E+01
  -6.272  0.6465E+00  0.1081E+01
  -6.262  0.6385E+00  0.1087E+01
  -6.252  0.6303E+00  0.1093E+01
  -6.242  0.6221E+00  0.1100E+01
  -6.232  0.6141E+00  0.1106E+01
  -6.222  0.6064E+00  0.1112E+01
  -6.212  0.5992E+00  0.1118E+01
  -6.202  0.5927E+00  0.1124E+01
  -6.192  0.5870E+00  0.1130E+01
  -6.182  0.5822E+00  0.1136E+01
  -6.172  0.5784E+00  0.1141E+01
  -6.162  0.5756E+00  0.1147E+01
  -6.152  0.5739E+00  0.1153E+01
  -6.142  0.5732E+00  0.1159E+01
  -6.132  0.5734E+00  0.1164E+01
  -6.122  0.5746E+00  0.1170E+01
  -6.112  0.5765E+00  0.1176E+01
  -6.102  0.5791E+00  0.1182E+01
  -6.092  0.5822E+00  0.1187E+01
  -6.082  0.5857E+00  0.1193E+01
  -6.072  0.5894E+00  0.1199E+01
  -6.062  0.5932E+00  0.1205E+01
  -6.052  0.5970E+00  0.1211E+01
  -6.042  0.6006E+00  0.1217E+01
  -6.032  0.6039E+00  0.1223E+01
  -6.022  0.6069E+00  0.1229E+01
  -6.012  0.6096E+00  0.1235E+01
  -6.002  0.6118E+00  0.1241E+01
  -5.992  0.6136E+00  0.1248E+01
  -5.982  0.6149E+00  0.1254E+01
  -5.972  0.6158E+00  0.1260E+01
  -5.962  0.6162E+00  0.1266E+01
  -5.952  0.6161E+00  0.1272E+01
  -5.942  0.6157E+00  0.1278E+01
  -5.932  0.6148E+00  0.1284E+01
  -5.922  0.6134E+00  0.1291E+01
  -5.912  0.6117E+00  0.1297E+01
  -5.902  0.6095E+00  0.1303E+01
  -5.892  0.6069E+00  0.1309E+01
  -5.882  0.6039E+00  0.1315E+01
  -5.872  0.6005E+00  0.1321E+01
  -5.862  0.5967E+00  0.1327E+01
  -5.852  0.5927E+00  0.1333E+01
  -5.842  0.5884E+00  0.1339E+01
  -5.832  0.5839E+00  0.1345E+01
  -5.822  0.5795E+00  0.1350E+01
  -5.812  0.5751E+00  0.1356E+01
  -5.802  0.5709E+00  0.1362E+01
  -5.792  0.5671E+00  0.1367E+01
  -5.782  0.5637E+00  0.1373E+01
  -5.772  0.5611E+00  0.1379E+01
  -5.762  0.5592E+00  0.1384E+01
  -5.752  0.5582E+00  0.1390E+01
  -5.742  0.5583E+00  0.1395E+01
  -5.732  0.5596E+00  0.1401E+01
  -5.722  0.5620E+00  0.1407E+01
  -5.712  0.5656E+00  0.1412E+01
  -5.702  0.5705E+00  0.1418E+01
  -5.692  0.5765E+00  0.1424E+01
  -5.682  0.5836E+00  0.1430E+01
  -5.672  0.5918E+00  0.1436E+01
  -5.662  0.6009E+00  0.1442E+01
  -5.652  0.6107E+00  0.1448E+01
  -5.642  0.6211E+00  0.1454E+01
  -5.632  0.6319E+00  0.1460E+01
  -5.622  0.6430E+00  0.1467E+01
  -5.612  0.6543E+00  0.1473E+01
  -5.602  0.6655E+00  0.1480E+01
  -5.592  0.6766E+00  0.1487E+01
  -5.582  0.6875E+00  0.1493E+01
  -5.572  0.6982E+00  0.1500E+01
  -5.562  0.7085E+00  0.1508E+01
  -5.552  0.7185E+00  0.1515E+01
  -5.542  0.7282E+00  0.1522E+01
  -5.532  0.7377E+00  0.1529E+01
  -5.522  0.7470E+00  0.1537E+01
  -5.512  0.7562E+00  0.1544E+01
  -5.502  0.7654E+00  0.1552E+01
  -5.492  0.7748E+00  0.1560E+01
  -5.482  0.7843E+00  0.1568E+01
  -5.472  0.7942E+00  0.1576E+01
  -5.462  0.8044E+00  0.1584E+01
  -5.452  0.8151E+00  0.1592E+01
  -5.442  0.8263E+00  0.1600E+01
  -5.432  0.8382E+00  0.1608E+01
  -5.422  0.8506E+00  0.1617E+01
  -5.412  0.8635E+00  0.1626E+01
  -5.402  0.8771E+00  0.1634E+01
  -5.392  0.8911E+00  0.1643E+01
  -5.382  0.9054E+00  0.1652E+01
  -5.372  0.9201E+00  0.1662E+01
  -5.362  0.9348E+00  0.1671E+01
  -5.352  0.9493E+00  0.1680E+01
  -5.342  0.9635E+00  0.1690E+01
  -5.332  0.9771E+00  0.1700E+01
  -5.322  0.9897E+00  0.1710E+01
  -5.312  0.1001E+01  0.1720E+01
  -5.302  0.1011E+01  0.1730E+01
  -5.292  0.1019E+01  0.1740E+01
  -5.282  0.1024E+01  0.1750E+01
  -5.272  0.1027E+01  0.1760E+01
  -5.262  0.1027E+01  0.1771E+01
  -5.252  0.1025E+01  0.1781E+01
  -5.242  0.1018E+01  0.1791E+01
  -5.232  0.1009E+01  0.1801E+01
  -5.222  0.9956E+00  0.1811E+01
  -5.212  0.9790E+00  0.1821E+01
  -5.202  0.9590E+00  0.1831E+01
  -5.192  0.9358E+00  0.1840E+01
  -5.182  0.9095E+00  0.1849E+01
  -5.172  0.8804E+00  0.1858E+01
  -5.162  0.8490E+00  0.1866E+01
  -5.152  0.8154E+00  0.1875E+01
  -5.142  0.7801E+00  0.1882E+01
  -5.132  0.7436E+00  0.1890E+01
  -5.122  0.7061E+00  0.1897E+01
  -5.112  0.6681E+00  0.1903E+01
  -5.102  0.6300E+00  0.1910E+01
  -5.092  0.5921E+00  0.1916E+01
  -5.082  0.5548E+00  0.1921E+01
  -5.072  0.5182E+00  0.1926E+01
  -5.062  0.4827E+00  0.1931E+01
  -5.052  0.4483E+00  0.1936E+01
  -5.042  0.4154E+00  0.1940E+01
  -5.032  0.3840E+00  0.1944E+01
  -5.022  0.3542E+00  0.1947E+01
  -5.012  0.3260E+00  0.1951E+01
  -5.002  0.2995E+00  0.1954E+01
  -4.992  0.2747E+00  0.1956E+01
  -4.982  0.2515E+00  0.1959E+01
  -4.972  0.2299E+00  0.1961E+01
  -4.962  0.2099E+00  0.1963E+01
  -4.952  0.1914E+00  0.1965E+01
  -4.942  0.1743E+00  0.1967E+01
  -4.932  0.1586E+00  0.1968E+01
  -4.922  0.1441E+00  0.1970E+01
  -4.912  0.1309E+00  0.1971E+01
  -4.902  0.1187E+00  0.1972E+01
  -4.892  0.1077E+00  0.1973E+01
  -4.882  0.9754E-01  0.1974E+01
  -4.872  0.8832E-01  0.1975E+01
  -4.862  0.7993E-01  0.1976E+01
  -4.852  0.7230E-01  0.1977E+01
  -4.842  0.6537E-01  0.1977E+01
  -4.832  0.5908E-01  0.1978E+01
  -4.822  0.5338E-01  0.1979E+01
  -4.812  0.4821E-01  0.1979E+01
  -4.802  0.4352E-01  0.1980E+01
  -4.792  0.3928E-01  0.1980E+01
  -4.782  0.3545E-01  0.1980E+01
  -4.772  0.3198E-01  0.1981E+01
  -4.762  0.2885E-01  0.1981E+01
  -4.752  0.2602E-01  0.1981E+01
  -4.742  0.2346E-01  0.1981E+01
  -4.732  0.2115E-01  0.1982E+01
  -4.722  0.1906E-01  0.1982E+01
  -4.712  0.1718E-01  0.1982E+01
  -4.702  0.1549E-01  0.1982E+01
  -4.692  0.1395E-01  0.1982E+01
  -4.682  0.1257E-01  0.1982E+01
  -4.672  0.1133E-01  0.1982E+01
  -4.662  0.1021E-01  0.1983E+01
  -4.652  0.9194E-02  0.1983E+01
  -4.642  0.8282E-02  0.1983E+01
  -4.632  0.7460E-02  0.1983E+01
  -4.622  0.6720E-02  0.1983E+01
  -4.612  0.6052E-02  0.1983E+01
  -4.602  0.5451E-02  0.1983E+01
  -4.592  0.4909E-02  0.1983E+01
  -4.582  0.4421E-02  0.1983E+01
  -4.572  0.3981E-02  0.1983E+01
  -4.562  0.3585E-02  0.1983E+01
  -4.552  0.3229E-02  0.1983E+01
  -4.542  0.2907E-02  0.1983E+01
  -4.532  0.2618E-02  0.1983E+01
  -4.522  0.2357E-02  0.1983E+01
  -4.512  0.2123E-02  0.1983E+01
  -4.502  0.1911E-02  0.1983E+01
  -4.492  0.1721E-02  0.1983E+01
  -4.482  0.1550E-02  0.1983E+01
  -4.472  0.1395E-02  0.1983E+01
  -4.462  0.1256E-02  0.1983E+01
  -4.452  0.1131E-02  0.1983E+01
  -4.442  0.1019E-02  0.1983E+01
  -4.432  0.9171E-03  0.1983E+01
  -4.422  0.8257E-03  0.1983E+01
  -4.412  0.7434E-03  0.1983E+01
  -4.402  0.6694E-03  0.1983E+01
  -4.392  0.6027E-03  0.1983E+01
  -4.382  0.5426E-03  0.1983E+01
  -4.372  0.4885E-03  0.1983E+01
  -4.362  0.4399E-03  0.1983E+01
  -4.352  0.3960E-03  0.1983E+01
  -4.342  0.3566E-03  0.1983E+01
  -4.332  0.3210E-03  0.1983E+01
  -4.322  0.2890E-03  0.1983E+01
  -4.312  0.2602E-03  0.1983E+01
  -4.302  0.2343E-03  0.1983E+01
  -4.292  0.2109E-03  0.1983E+01
  -4.282  0.1899E-03  0.1983E+01
  -4.272  0.1710E-03  0.1983E+01
  -4.262  0.1540E-03  0.1983E+01
  -4.252  0.1386E-03  0.1983E+01
  -4.242  0.1248E-03  0.1983E+01
  -4.232  0.1124E-03  0.1984E+01
  -4.222  0.1012E-03  0.1984E+01
  -4.212  0.9108E-04  0.1984E+01
  -4.202  0.8200E-04  0.1984E+01
  -4.192  0.7383E-04  0.1984E+01
  -4.182  0.6647E-04  0.1984E+01
  -4.172  0.5984E-04  0.1984E+01
  -4.162  0.5388E-04  0.1984E+01
  -4.152  0.4851E-04  0.1984E+01
  -4.142  0.4367E-04  0.1984E+01
  -4.132  0.3932E-04  0.1984E+01
  -4.122  0.3540E-04  0.1984E+01
  -4.112  0.3187E-04  0.1984E+01
  -4.102  0.2870E-04  0.1984E+01
  -4.092  0.2584E-04  0.1984E+01
  -4.082  0.2326E-04  0.1984E+01
  -4.072  0.2094E-04  0.1984E+01
  -4.062  0.1886E-04  0.1984E+01
  -4.052  0.1698E-04  0.1984E+01
  -4.042  0.1529E-04  0.1984E+01
  -4.032  0.1376E-04  0.1984E+01
  -4.022  0.1239E-04  0.1984E+01
  -4.012  0.1116E-04  0.1984E+01
  -4.002  0.1005E-04  0.1984E+01
  -3.992  0.9047E-05  0.1984E+01
  -3.982  0.8146E-05  0.1984E+01
  -3.972  0.7336E-05  0.1984E+01
  -3.962  0.6606E-05  0.1984E+01
  -3.952  0.5949E-05  0.1984E+01
  -3.942  0.5358E-05  0.1984E+01
  -3.932  0.4826E-05  0.1984E+01
  -3.922  0.4347E-05  0.1984E+01
  -3.912  0.3917E-05  0.1984E+01
  -3.902  0.3529E-05  0.1984E+01
  -3.892  0.3181E-05  0.1984E+01
  -3.882  0.2867E-05  0.1984E+01
  -3.872  0.2585E-05  0.1984E+01
  -3.862  0.2332E-05  0.1984E+01
  -3.852  0.2104E-05  0.1984E+01
  -3.842  0.1900E-05  0.1984E+01
  -3.832  0.1716E-05  0.1984E+01
  -3.822  0.1552E-05  0.1984E+01
  -3.812  0.1404E-05  0.1984E+01
  -3.802  0.1272E-05  0.1984E+01
  -3.792  0.1155E-05  0.1984E+01
  -3.782  0.1050E-05  0.1984E+01
  -3.772  0.9560E-06  0.1984E+01
  -3.762  0.8730E-06  0.1984E+01
  -3.752  0.7997E-06  0.1984E+01
  -3.742  0.7352E-06  0.1984E+01
  -3.732  0.6788E-06  0.1984E+01
  -3.722  0.6299E-06  0.1984E+01
  -3.712  0.5879E-06  0.1984E+01
  -3.702  0.5524E-06  0.1984E+01
  -3.692  0.5230E-06  0.1984E+01
  -3.682  0.4994E-06  0.1984E+01
  -3.672  0.4813E-06  0.1984E+01
  -3.662  0.4685E-06  0.1984E+01
  -3.652  0.4609E-06  0.1984E+01
  -3.642  0.4584E-06  0.1984E+01
  -3.632  0.4609E-06  0.1984E+01
  -3.622  0.4685E-06  0.1984E+01
  -3.612  0.4813E-06  0.1984E+01
  -3.602  0.4994E-06  0.1984E+01
  -3.592  0.5230E-06  0.1984E+01
  -3.582  0.5524E-06  0.1984E+01
  -3.572  0.5879E-06  0.1984E+01
  -3.562  0.6299E-06  0.1984E+01
  -3.552  0.6788E-06  0.1984E+01
  -3.542  0.7352E-06  0.1984E+01
  -3.532  0.7997E-06  0.1984E+01
  -3.522  0.8730E-06  0.1984E+01
  -3.512  0.9560E-06  0.1984E+01
  -3.502  0.1050E-05  0.1984E+01
  -3.492  0.1155E-05  0.1984E+01
  -3.482  0.1272E-05  0.1984E+01
  -3.472  0.1404E-05  0.1984E+01
  -3.462  0.1552E-05  0.1984E+01
  -3.452  0.1716E-05  0.1984E+01
  -3.442  0.1900E-05  0.1984E+01
  -3.432  0.2104E-05  0.1984E+01
  -3.422  0.2332E-05  0.1984E+01
  -3.412  0.2585E-05  0.1984E+01
  -3.402  0.2867E-05  0.1984E+01
  -3.392  0.3180E-05  0.1984E+01
  -3.382  0.3529E-05  0.1984E+01
  -3.372  0.3917E-05  0.1984E+01
  -3.362  0.4347E-05  0.1984E+01
  -3.352  0.4826E-05  0.1984E+01
  -3.342  0.5358E-05  0.1984E+01
  -3.332  0.5949E-05  0.1984E+01
  -3.322  0.6606E-05  0.1984E+01
  -3.312  0.7336E-05  0.1984E+01
  -3.302  0.8146E-05  0.1984E+01
  -3.292  0.9047E-05  0.1984E+01
  -3.282  0.1005E-04  0.1984E+01
  -3.272  0.1116E-04  0.1984E+01
  -3.262  0.1239E-04  0.1984E+01
  -3.252  0.1376E-04  0.1984E+01
  -3.242  0.1529E-04  0.1984E+01
  -3.232  0.1698E-04  0.1984E+01
  -3.222  0.1886E-04  0.1984E+01
  -3.212  0.2094E-04  0.1984E+01
  -3.202  0.2326E-04  0.1984E+01
  -3.192  0.2584E-04  0.1984E+01
  -3.182  0.2870E-04  0.1984E+01
  -3.172  0.3187E-04  0.1984E+01
  -3.162  0.3540E-04  0.1984E+01
  -3.152  0.3932E-04  0.1984E+01
  -3.142  0.4367E-04  0.1984E+01
  -3.132  0.4851E-04  0.1984E+01
  -3.122  0.5388E-04  0.1984E+01
  -3.112  0.5984E-04  0.1984E+01
  -3.102  0.6647E-04  0.1984E+01
  -3.092  0.7382E-04  0.1984E+01
  -3.082  0.8200E-04  0.1984E+01
  -3.072  0.9107E-04  0.1984E+01
  -3.062  0.1012E-03  0.1984E+01
  -3.052  0.1124E-03  0.1984E+01
  -3.042  0.1248E-03  0.1984E+01
  -3.032  0.1386E-03  0.1984E+01
  -3.022  0.1539E-03  0.1984E+01
  -3.012  0.1710E-03  0.1984E+01
  -3.002  0.1899E-03  0.1984E+01
  -2.992  0.2109E-03  0.1984E+01
  -2.982  0.2343E-03  0.1984E+01
  -2.972  0.2602E-03  0.1984E+01
  -2.962  0.2890E-03  0.1984E+01
  -2.952  0.3210E-03  0.1984E+01
  -2.942  0.3565E-03  0.1984E+01
  -2.932  0.3960E-03  0.1984E+01
  -2.922  0.4398E-03  0.1984E+01
  -2.912  0.4885E-03  0.1984E+01
  -2.902  0.5426E-03  0.1984E+01
  -2.892  0.6026E-03  0.1984E+01
  -2.882  0.6693E-03  0.1984E+01
  -2.872  0.7433E-03  0.1984E+01
  -2.862  0.8256E-03  0.1984E+01
  -2.852  0.9169E-03  0.1984E+01
  -2.842  0.1018E-02  0.1984E+01
  -2.832  0.1131E-02  0.1984E+01
  -2.822  0.1256E-02  0.1984E+01
  -2.812  0.1395E-02  0.1984E+01
  -2.802  0.1549E-02  0.1984E+01
  -2.792  0.1721E-02  0.1984E+01
  -2.782  0.1911E-02  0.1984E+01
  -2.772  0.2122E-02  0.1984E+01
  -2.762  0.2357E-02  0.1984E+01
  -2.752  0.2617E-02  0.1984E+01
  -2.742  0.2906E-02  0.1984E+01
  -2.732  0.3227E-02  0.1984E+01
  -2.722  0.3583E-02  0.1984E+01
  -2.712  0.3979E-02  0.1984E+01
  -2.702  0.4418E-02  0.1984E+01
  -2.692  0.4906E-02  0.1984E+01
  -2.682  0.5447E-02  0.1984E+01
  -2.672  0.6047E-02  0.1984E+01
  -2.662  0.6713E-02  0.1984E+01
  -2.652  0.7452E-02  0.1984E+01
  -2.642  0.8273E-02  0.1984E+01
  -2.632  0.9182E-02  0.1984E+01
  -2.622  0.1019E-01  0.1985E+01
  -2.612  0.1131E-01  0.1985E+01
  -2.602  0.1255E-01  0.1985E+01
  -2.592  0.1393E-01  0.1985E+01
  -2.582  0.1545E-01  0.1985E+01
  -2.572  0.1714E-01  0.1985E+01
  -2.562  0.1901E-01  0.1985E+01
  -2.552  0.2109E-01  0.1986E+01
  -2.542  0.2338E-01  0.1986E+01
  -2.532  0.2592E-01  0.1986E+01
  -2.522  0.2873E-01  0.1986E+01
  -2.512  0.3184E-01  0.1987E+01
  -2.502  0.3528E-01  0.1987E+01
  -2.492  0.3907E-01  0.1987E+01
  -2.482  0.4327E-01  0.1988E+01
  -2.472  0.4789E-01  0.1988E+01
  -2.462  0.5299E-01  0.1989E+01
  -2.452  0.5861E-01  0.1990E+01
  -2.442  0.6479E-01  0.1990E+01
  -2.432  0.7160E-01  0.1991E+01
  -2.422  0.7907E-01  0.1992E+01
  -2.412  0.8727E-01  0.1993E+01
  -2.402  0.9625E-01  0.1994E+01
  -2.392  0.1061E+00  0.1995E+01
  -2.382  0.1168E+00  0.1996E+01
  -2.372  0.1286E+00  0.1997E+01
  -2.362  0.1413E+00  0.1998E+01
  -2.352  0.1552E+00  0.2000E+01
  -2.342  0.1702E+00  0.2002E+01
  -2.332  0.1865E+00  0.2004E+01
  -2.322  0.2040E+00  0.2006E+01
  -2.312  0.2228E+00  0.2008E+01
  -2.302  0.2430E+00  0.2010E+01
  -2.292  0.2646E+00  0.2013E+01
  -2.282  0.2875E+00  0.2016E+01
  -2.272  0.3118E+00  0.2019E+01
  -2.262  0.3375E+00  0.2022E+01
  -2.252  0.3644E+00  0.2026E+01
  -2.242  0.3925E+00  0.2030E+01
  -2.232  0.4216E+00  0.2034E+01
  -2.222  0.4517E+00  0.2039E+01
  -2.212  0.4825E+00  0.2043E+01
  -2.202  0.5139E+00  0.2049E+01
  -2.192  0.5455E+00  0.2054E+01
  -2.182  0.5772E+00  0.2060E+01
  -2.172  0.6086E+00  0.2066E+01
  -2.162  0.6395E+00  0.2072E+01
  -2.152  0.6694E+00  0.2079E+01
  -2.142  0.6982E+00  0.2086E+01
  -2.132  0.7253E+00  0.2093E+01
  -2.122  0.7506E+00  0.2101E+01
  -2.112  0.7737E+00  0.2108E+01
  -2.102  0.7944E+00  0.2116E+01
  -2.092  0.8123E+00  0.2124E+01
  -2.082  0.8274E+00  0.2133E+01
  -2.072  0.8394E+00  0.2141E+01
  -2.062  0.8482E+00  0.2150E+01
  -2.052  0.8538E+00  0.2158E+01
  -2.042  0.8562E+00  0.2167E+01
  -2.032  0.8554E+00  0.2175E+01
  -2.022  0.8516E+00  0.2184E+01
  -2.012  0.8449E+00  0.2192E+01
  -2.002  0.8356E+00  0.2201E+01
  -1.992  0.8239E+00  0.2209E+01
  -1.982  0.8100E+00  0.2217E+01
  -1.972  0.7944E+00  0.2225E+01
  -1.962  0.7772E+00  0.2233E+01
  -1.952  0.7589E+00  0.2240E+01
  -1.942  0.7398E+00  0.2248E+01
  -1.932  0.7201E+00  0.2255E+01
  -1.922  0.7002E+00  0.2262E+01
  -1.912  0.6803E+00  0.2269E+01
  -1.902  0.6606E+00  0.2275E+01
  -1.892  0.6414E+00  0.2282E+01
  -1.882  0.6227E+00  0.2288E+01
  -1.872  0.6047E+00  0.2294E+01
  -1.862  0.5875E+00  0.2300E+01
  -1.852  0.5712E+00  0.2306E+01
  -1.842  0.5558E+00  0.2311E+01
  -1.832  0.5412E+00  0.2317E+01
  -1.822  0.5276E+00  0.2322E+01
  -1.812  0.5149E+00  0.2327E+01
  -1.802  0.5030E+00  0.2332E+01
  -1.792  0.4921E+00  0.2337E+01
  -1.782  0.4820E+00  0.2342E+01
  -1.772  0.4727E+00  0.2346E+01
  -1.762  0.4643E+00  0.2351E+01
  -1.752  0.4567E+00  0.2356E+01
  -1.742  0.4498E+00  0.2360E+01
  -1.732  0.4437E+00  0.2365E+01
  -1.722  0.4384E+00  0.2369E+01
  -1.712  0.4337E+00  0.2373E+01
  -1.702  0.4297E+00  0.2378E+01
  -1.692  0.4263E+00  0.2382E+01
  -1.682  0.4235E+00  0.2386E+01
  -1.672  0.4212E+00  0.2390E+01
  -1.662  0.4194E+00  0.2394E+01
  -1.652  0.4181E+00  0.2399E+01
  -1.642  0.4172E+00  0.2403E+01
  -1.632  0.4167E+00  0.2407E+01
  -1.622  0.4166E+00  0.2411E+01
  -1.612  0.4169E+00  0.2415E+01
  -1.602  0.4176E+00  0.2420E+01
  -1.592  0.4185E+00  0.2424E+01
  -1.582  0.4199E+00  0.2428E+01
  -1.572  0.4215E+00  0.2432E+01
  -1.562  0.4233E+00  0.2436E+01
  -1.552  0.4254E+00  0.2441E+01
  -1.542  0.4276E+00  0.2445E+01
  -1.532  0.4298E+00  0.2449E+01
  -1.522  0.4319E+00  0.2453E+01
  -1.512  0.4338E+00  0.2458E+01
  -1.502  0.4354E+00  0.2462E+01
  -1.492  0.4365E+00  0.2467E+01
  -1.482  0.4369E+00  0.2471E+01
  -1.472  0.4364E+00  0.2475E+01
  -1.462  0.4351E+00  0.2480E+01
  -1.452  0.4326E+00  0.2484E+01
  -1.442  0.4289E+00  0.2488E+01
  -1.432  0.4240E+00  0.2492E+01
  -1.422  0.4178E+00  0.2497E+01
  -1.412  0.4103E+00  0.2501E+01
  -1.402  0.4015E+00  0.2505E+01
  -1.392  0.3915E+00  0.2509E+01
  -1.382  0.3804E+00  0.2513E+01
  -1.372  0.3684E+00  0.2516E+01
  -1.362  0.3555E+00  0.2520E+01
  -1.352  0.3420E+00  0.2523E+01
  -1.342  0.3280E+00  0.2526E+01
  -1.332  0.3138E+00  0.2530E+01
  -1.322  0.2995E+00  0.2533E+01
  -1.312  0.2853E+00  0.2535E+01
  -1.302  0.2714E+00  0.2538E+01
  -1.292  0.2579E+00  0.2541E+01
  -1.282  0.2450E+00  0.2543E+01
  -1.272  0.2328E+00  0.2546E+01
  -1.262  0.2214E+00  0.2548E+01
  -1.252  0.2109E+00  0.2550E+01
  -1.242  0.2014E+00  0.2552E+01
  -1.232  0.1929E+00  0.2554E+01
  -1.222  0.1855E+00  0.2556E+01
  -1.212  0.1792E+00  0.2557E+01
  -1.202  0.1740E+00  0.2559E+01
  -1.192  0.1699E+00  0.2561E+01
  -1.182  0.1670E+00  0.2563E+01
  -1.172  0.1653E+00  0.2564E+01
  -1.162  0.1646E+00  0.2566E+01
  -1.152  0.1651E+00  0.2567E+01
  -1.142  0.1666E+00  0.2569E+01
  -1.132  0.1692E+00  0.2571E+01
  -1.122  0.1728E+00  0.2573E+01
  -1.112  0.1773E+00  0.2574E+01
  -1.102  0.1826E+00  0.2576E+01
  -1.092  0.1888E+00  0.2578E+01
  -1.082  0.1958E+00  0.2580E+01
  -1.072  0.2033E+00  0.2582E+01
  -1.062  0.2114E+00  0.2584E+01
  -1.052  0.2200E+00  0.2586E+01
  -1.042  0.2289E+00  0.2589E+01
  -1.032  0.2380E+00  0.2591E+01
  -1.022  0.2471E+00  0.2594E+01
  -1.012  0.2563E+00  0.2596E+01
  -1.002  0.2653E+00  0.2599E+01
  -0.992  0.2740E+00  0.2601E+01
  -0.982  0.2823E+00  0.2604E+01
  -0.972  0.2902E+00  0.2607E+01
  -0.962  0.2975E+00  0.2610E+01
  -0.952  0.3041E+00  0.2613E+01
  -0.942  0.3100E+00  0.2616E+01
  -0.932  0.3151E+00  0.2619E+01
  -0.922  0.3194E+00  0.2623E+01
  -0.912  0.3228E+00  0.2626E+01
  -0.902  0.3253E+00  0.2629E+01
  -0.892  0.3270E+00  0.2632E+01
  -0.882  0.3278E+00  0.2636E+01
  -0.872  0.3278E+00  0.2639E+01
  -0.862  0.3269E+00  0.2642E+01
  -0.852  0.3253E+00  0.2645E+01
  -0.842  0.3229E+00  0.2649E+01
  -0.832  0.3199E+00  0.2652E+01
  -0.822  0.3164E+00  0.2655E+01
  -0.812  0.3123E+00  0.2658E+01
  -0.802  0.3079E+00  0.2661E+01
  -0.792  0.3032E+00  0.2664E+01
  -0.782  0.2984E+00  0.2667E+01
  -0.772  0.2935E+00  0.2670E+01
  -0.762  0.2888E+00  0.2673E+01
  -0.752  0.2843E+00  0.2676E+01
  -0.742  0.2802E+00  0.2679E+01
  -0.732  0.2765E+00  0.2682E+01
  -0.722  0.2734E+00  0.2684E+01
  -0.712  0.2710E+00  0.2687E+01
  -0.702  0.2692E+00  0.2690E+01
  -0.692  0.2682E+00  0.2692E+01
  -0.682  0.2681E+00  0.2695E+01
  -0.672  0.2687E+00  0.2698E+01
  -0.662  0.2701E+00  0.2700E+01
  -0.652  0.2723E+00  0.2703E+01
  -0.642  0.2751E+00  0.2706E+01
  -0.632  0.2786E+00  0.2709E+01
  -0.622  0.2826E+00  0.2711E+01
  -0.612  0.2870E+00  0.2714E+01
  -0.602  0.2918E+00  0.2717E+01
  -0.592  0.2967E+00  0.2720E+01
  -0.582  0.3017E+00  0.2723E+01
  -0.572  0.3066E+00  0.2726E+01
  -0.562  0.3112E+00  0.2729E+01
  -0.552  0.3156E+00  0.2733E+01
  -0.542  0.3194E+00  0.2736E+01
  -0.532  0.3227E+00  0.2739E+01
  -0.522  0.3254E+00  0.2742E+01
  -0.512  0.3272E+00  0.2746E+01
  -0.502  0.3283E+00  0.2749E+01
  -0.492  0.3284E+00  0.2752E+01
  -0.482  0.3277E+00  0.2755E+01
  -0.472  0.3259E+00  0.2759E+01
  -0.462  0.3232E+00  0.2762E+01
  -0.452  0.3195E+00  0.2765E+01
  -0.442  0.3149E+00  0.2768E+01
  -0.432  0.3093E+00  0.2771E+01
  -0.422  0.3027E+00  0.2774E+01
  -0.412  0.2953E+00  0.2777E+01
  -0.402  0.2872E+00  0.2780E+01
  -0.392  0.2782E+00  0.2783E+01
  -0.382  0.2687E+00  0.2786E+01
  -0.372  0.2586E+00  0.2788E+01
  -0.362  0.2482E+00  0.2791E+01
  -0.352  0.2373E+00  0.2793E+01
  -0.342  0.2263E+00  0.2795E+01
  -0.332  0.2152E+00  0.2797E+01
  -0.322  0.2041E+00  0.2800E+01
  -0.312  0.1932E+00  0.2801E+01
  -0.302  0.1824E+00  0.2803E+01
  -0.292  0.1720E+00  0.2805E+01
  -0.282  0.1620E+00  0.2807E+01
  -0.272  0.1524E+00  0.2808E+01
  -0.262  0.1434E+00  0.2810E+01
  -0.252  0.1349E+00  0.2811E+01
  -0.242  0.1271E+00  0.2812E+01
  -0.232  0.1199E+00  0.2813E+01
  -0.222  0.1134E+00  0.2815E+01
  -0.212  0.1076E+00  0.2816E+01
  -0.202  0.1025E+00  0.2817E+01
  -0.192  0.9810E-01  0.2818E+01
  -0.182  0.9444E-01  0.2819E+01
  -0.172  0.9152E-01  0.2819E+01
  -0.162  0.8934E-01  0.2820E+01
  -0.152  0.8790E-01  0.2821E+01
  -0.142  0.8721E-01  0.2822E+01
  -0.132  0.8726E-01  0.2823E+01
  -0.122  0.8808E-01  0.2824E+01
  -0.112  0.8965E-01  0.2825E+01
  -0.102  0.9200E-01  0.2826E+01
  -0.092  0.9513E-01  0.2827E+01
  -0.082  0.9904E-01  0.2828E+01
  -0.072  0.1038E+00  0.2829E+01
  -0.062  0.1093E+00  0.2830E+01
  -0.052  0.1156E+00  0.2831E+01
  -0.042  0.1227E+00  0.2832E+01
  -0.032  0.1307E+00  0.2833E+01
  -0.022  0.1394E+00  0.2835E+01
  -0.012  0.1489E+00  0.2836E+01
  -0.002  0.1592E+00  0.2838E+01
   0.008  0.1702E+00  0.2840E+01
   0.018  0.1819E+00  0.2841E+01
   0.028  0.1941E+00  0.2843E+01
   0.038  0.2069E+00  0.2845E+01
   0.048  0.2201E+00  0.2848E+01
   0.058  0.2336E+00  0.2850E+01
   0.068  0.2472E+00  0.2852E+01
   0.078  0.2609E+00  0.2855E+01
   0.088  0.2744E+00  0.2858E+01
   0.098  0.2875E+00  0.2861E+01
   0.108  0.3001E+00  0.2864E+01
   0.118  0.3119E+00  0.2867E+01
   0.128  0.3229E+00  0.2870E+01
   0.138  0.3327E+00  0.2873E+01
   0.148  0.3412E+00  0.2877E+01
   0.158  0.3483E+00  0.2880E+01
   0.168  0.3538E+00  0.2884E+01
   0.178  0.3577E+00  0.2887E+01
   0.188  0.3600E+00  0.2891E+01
   0.198  0.3606E+00  0.2895E+01
   0.208  0.3596E+00  0.2898E+01
   0.218  0.3570E+00  0.2902E+01
   0.228  0.3531E+00  0.2905E+01
   0.238  0.3478E+00  0.2909E+01
   0.248  0.3415E+00  0.2912E+01
   0.258  0.3342E+00  0.2916E+01
   0.268  0.3263E+00  0.2919E+01
   0.278  0.3179E+00  0.2922E+01
   0.288  0.3092E+00  0.2925E+01
   0.298  0.3005E+00  0.2928E+01
   0.308  0.2919E+00  0.2931E+01
   0.318  0.2836E+00  0.2934E+01
   0.328  0.2757E+00  0.2937E+01
   0.338  0.2684E+00  0.2939E+01
   0.348  0.2617E+00  0.2942E+01
   0.358  0.2558E+00  0.2944E+01
   0.368  0.2506E+00  0.2947E+01
   0.378  0.2463E+00  0.2949E+01
   0.388  0.2427E+00  0.2952E+01
   0.398  0.2398E+00  0.2954E+01
   0.408  0.2377E+00  0.2957E+01
   0.418  0.2361E+00  0.2959E+01
   0.428  0.2351E+00  0.2961E+01
   0.438  0.2345E+00  0.2964E+01
   0.448  0.2343E+00  0.2966E+01
   0.458  0.2343E+00  0.2968E+01
   0.468  0.2344E+00  0.2971E+01
   0.478  0.2344E+00  0.2973E+01
   0.488  0.2344E+00  0.2975E+01
   0.498  0.2342E+00  0.2978E+01
   0.508  0.2336E+00  0.2980E+01
   0.518  0.2328E+00  0.2982E+01
   0.528  0.2316E+00  0.2985E+01
   0.538  0.2301E+00  0.2987E+01
   0.548  0.2281E+00  0.2989E+01
   0.558  0.2259E+00  0.2992E+01
   0.568  0.2233E+00  0.2994E+01
   0.578  0.2205E+00  0.2996E+01
   0.588  0.2176E+00  0.2998E+01
   0.598  0.2146E+00  0.3000E+01
   0.608  0.2117E+00  0.3002E+01
   0.618  0.2088E+00  0.3005E+01
   0.628  0.2062E+00  0.3007E+01
   0.638  0.2038E+00  0.3009E+01
   0.648  0.2017E+00  0.3011E+01
   0.658  0.2001E+00  0.3013E+01
   0.668  0.1988E+00  0.3015E+01
   0.678  0.1980E+00  0.3017E+01
   0.688  0.1976E+00  0.3019E+01
   0.698  0.1976E+00  0.3021E+01
   0.708  0.1979E+00  0.3023E+01
   0.718  0.1986E+00  0.3025E+01
   0.728  0.1995E+00  0.3027E+01
   0.738  0.2005E+00  0.3029E+01
   0.748  0.2016E+00  0.3031E+01
   0.758  0.2027E+00  0.3033E+01
   0.768  0.2036E+00  0.3035E+01
   0.778  0.2042E+00  0.3037E+01
   0.788  0.2045E+00  0.3039E+01
   0.798  0.2044E+00  0.3041E+01
   0.808  0.2037E+00  0.3043E+01
   0.818  0.2024E+00  0.3045E+01
   0.828  0.2005E+00  0.3047E+01
   0.838  0.1979E+00  0.3049E+01
   0.848  0.1947E+00  0.3051E+01
   0.858  0.1908E+00  0.3053E+01
   0.868  0.1864E+00  0.3054E+01
   0.878  0.1814E+00  0.3056E+01
   0.888  0.1759E+00  0.3058E+01
   0.898  0.1701E+00  0.3060E+01
   0.908  0.1640E+00  0.3061E+01
   0.918  0.1577E+00  0.3063E+01
   0.928  0.1512E+00  0.3064E+01
   0.938  0.1448E+00  0.3066E+01
   0.948  0.1385E+00  0.3067E+01
   0.958  0.1324E+00  0.3069E+01
   0.968  0.1265E+00  0.3070E+01
   0.978  0.1210E+00  0.3071E+01
   0.988  0.1158E+00  0.3072E+01
   0.998  0.1112E+00  0.3073E+01
   1.008  0.1070E+00  0.3074E+01
   1.018  0.1034E+00  0.3075E+01
   1.028  0.1004E+00  0.3076E+01
   1.038  0.9797E-01  0.3077E+01
   1.048  0.9621E-01  0.3078E+01
   1.058  0.9510E-01  0.3079E+01
   1.068  0.9467E-01  0.3080E+01
   1.078  0.9493E-01  0.3081E+01
   1.088  0.9587E-01  0.3082E+01
   1.098  0.9752E-01  0.3083E+01
   1.108  0.9987E-01  0.3084E+01
   1.118  0.1029E+00  0.3085E+01
   1.128  0.1067E+00  0.3086E+01
   1.138  0.1111E+00  0.3087E+01
   1.148  0.1162E+00  0.3089E+01
   1.158  0.1220E+00  0.3090E+01
   1.168  0.1284E+00  0.3091E+01
   1.178  0.1353E+00  0.3092E+01
   1.188  0.1429E+00  0.3094E+01
   1.198  0.1509E+00  0.3095E+01
   1.208  0.1594E+00  0.3097E+01
   1.218  0.1682E+00  0.3099E+01
   1.228  0.1774E+00  0.3100E+01
   1.238  0.1868E+00  0.3102E+01
   1.248  0.1963E+00  0.3104E+01
   1.258  0.2059E+00  0.3106E+01
   1.268  0.2155E+00  0.3108E+01
   1.278  0.2249E+00  0.3111E+01
   1.288  0.2341E+00  0.3113E+01
   1.298  0.2430E+00  0.3115E+01
   1.308  0.2515E+00  0.3118E+01
   1.318  0.2597E+00  0.3121E+01
   1.328  0.2673E+00  0.3123E+01
   1.338  0.2744E+00  0.3126E+01
   1.348  0.2810E+00  0.3129E+01
   1.358  0.2871E+00  0.3132E+01
   1.368  0.2926E+00  0.3135E+01
   1.378  0.2976E+00  0.3138E+01
   1.388  0.3021E+00  0.3141E+01
   1.398  0.3061E+00  0.3144E+01
   1.408  0.3096E+00  0.3147E+01
   1.418  0.3127E+00  0.3150E+01
   1.428  0.3153E+00  0.3153E+01
   1.438  0.3175E+00  0.3156E+01
   1.448  0.3192E+00  0.3159E+01
   1.458  0.3206E+00  0.3163E+01
   1.468  0.3215E+00  0.3166E+01
   1.478  0.3220E+00  0.3169E+01
   1.488  0.3220E+00  0.3172E+01
   1.498  0.3217E+00  0.3176E+01
   1.508  0.3210E+00  0.3179E+01
   1.518  0.3199E+00  0.3182E+01
   1.528  0.3185E+00  0.3185E+01
   1.538  0.3168E+00  0.3188E+01
   1.548  0.3148E+00  0.3191E+01
   1.558  0.3125E+00  0.3195E+01
   1.568  0.3100E+00  0.3198E+01
   1.578  0.3073E+00  0.3201E+01
   1.588  0.3043E+00  0.3204E+01
   1.598  0.3012E+00  0.3207E+01
   1.608  0.2979E+00  0.3210E+01
   1.618  0.2944E+00  0.3213E+01
   1.628  0.2907E+00  0.3216E+01
   1.638  0.2867E+00  0.3218E+01
   1.648  0.2823E+00  0.3221E+01
   1.658  0.2777E+00  0.3224E+01
   1.668  0.2726E+00  0.3227E+01
   1.678  0.2671E+00  0.3229E+01
   1.688  0.2612E+00  0.3232E+01
   1.698  0.2548E+00  0.3235E+01
   1.708  0.2480E+00  0.3237E+01
   1.718  0.2407E+00  0.3240E+01
   1.728  0.2329E+00  0.3242E+01
   1.738  0.2249E+00  0.3244E+01
   1.748  0.2164E+00  0.3246E+01
   1.758  0.2078E+00  0.3248E+01
   1.768  0.1990E+00  0.3250E+01
   1.778  0.1900E+00  0.3252E+01
   1.788  0.1811E+00  0.3254E+01
   1.798  0.1723E+00  0.3256E+01
   1.808  0.1636E+00  0.3257E+01
   1.818  0.1552E+00  0.3259E+01
   1.828  0.1471E+00  0.3260E+01
   1.838  0.1394E+00  0.3262E+01
   1.848  0.1322E+00  0.3263E+01
   1.858  0.1254E+00  0.3264E+01
   1.868  0.1193E+00  0.3266E+01
   1.878  0.1137E+00  0.3267E+01
   1.888  0.1087E+00  0.3268E+01
   1.898  0.1043E+00  0.3269E+01
   1.908  0.1007E+00  0.3270E+01
   1.918  0.9763E-01  0.3271E+01
   1.928  0.9528E-01  0.3272E+01
   1.938  0.9361E-01  0.3273E+01
   1.948  0.9260E-01  0.3274E+01
   1.958  0.9227E-01  0.3275E+01
   1.968  0.9261E-01  0.3275E+01
   1.978  0.9359E-01  0.3276E+01
   1.988  0.9521E-01  0.3277E+01
   1.998  0.9746E-01  0.3278E+01
   2.008  0.1003E+00  0.3279E+01
   2.018  0.1037E+00  0.3280E+01
   2.028  0.1076E+00  0.3281E+01
   2.038  0.1121E+00  0.3283E+01
   2.048  0.1169E+00  0.3284E+01
   2.058  0.1222E+00  0.3285E+01
   2.068  0.1278E+00  0.3286E+01
   2.078  0.1336E+00  0.3288E+01
   2.088  0.1396E+00  0.3289E+01
   2.098  0.1456E+00  0.3290E+01
   2.108  0.1516E+00  0.3292E+01
   2.118  0.1576E+00  0.3294E+01
   2.128  0.1632E+00  0.3295E+01
   2.138  0.1686E+00  0.3297E+01
   2.148  0.1735E+00  0.3299E+01
   2.158  0.1780E+00  0.3300E+01
   2.168  0.1818E+00  0.3302E+01
   2.178  0.1850E+00  0.3304E+01
   2.188  0.1875E+00  0.3306E+01
   2.198  0.1892E+00  0.3308E+01
   2.208  0.1903E+00  0.3310E+01
   2.218  0.1906E+00  0.3312E+01
   2.228  0.1902E+00  0.3314E+01
   2.238  0.1892E+00  0.3315E+01
   2.248  0.1876E+00  0.3317E+01
   2.258  0.1856E+00  0.3319E+01
   2.268  0.1832E+00  0.3321E+01
   2.278  0.1805E+00  0.3323E+01
   2.288  0.1777E+00  0.3325E+01
   2.298  0.1749E+00  0.3326E+01
   2.308  0.1721E+00  0.3328E+01
   2.318  0.1696E+00  0.3330E+01
   2.328  0.1673E+00  0.3331E+01
   2.338  0.1654E+00  0.3333E+01
   2.348  0.1639E+00  0.3335E+01
   2.358  0.1629E+00  0.3336E+01
   2.368  0.1625E+00  0.3338E+01
   2.378  0.1626E+00  0.3340E+01
   2.388  0.1633E+00  0.3341E+01
   2.398  0.1646E+00  0.3343E+01
   2.408  0.1664E+00  0.3345E+01
   2.418  0.1688E+00  0.3346E+01
   2.428  0.1716E+00  0.3348E+01
   2.438  0.1748E+00  0.3350E+01
   2.448  0.1784E+00  0.3351E+01
   2.458  0.1822E+00  0.3353E+01
   2.468  0.1861E+00  0.3355E+01
   2.478  0.1901E+00  0.3357E+01
   2.488  0.1940E+00  0.3359E+01
   2.498  0.1978E+00  0.3361E+01
   2.508  0.2014E+00  0.3363E+01
   2.518  0.2046E+00  0.3365E+01
   2.528  0.2074E+00  0.3367E+01
   2.538  0.2097E+00  0.3369E+01
   2.548  0.2115E+00  0.3371E+01
   2.558  0.2128E+00  0.3373E+01
   2.568  0.2136E+00  0.3376E+01
   2.578  0.2139E+00  0.3378E+01
   2.588  0.2138E+00  0.3380E+01
   2.598  0.2133E+00  0.3382E+01
   2.608  0.2125E+00  0.3384E+01
   2.618  0.2116E+00  0.3386E+01
   2.628  0.2106E+00  0.3388E+01
   2.638  0.2097E+00  0.3390E+01
   2.648  0.2089E+00  0.3393E+01
   2.658  0.2084E+00  0.3395E+01
   2.668  0.2084E+00  0.3397E+01
   2.678  0.2088E+00  0.3399E+01
   2.688  0.2099E+00  0.3401E+01
   2.698  0.2117E+00  0.3403E+01
   2.708  0.2143E+00  0.3405E+01
   2.718  0.2177E+00  0.3407E+01
   2.728  0.2220E+00  0.3410E+01
   2.738  0.2271E+00  0.3412E+01
   2.748  0.2331E+00  0.3414E+01
   2.758  0.2399E+00  0.3417E+01
   2.768  0.2475E+00  0.3419E+01
   2.778  0.2557E+00  0.3422E+01
   2.788  0.2646E+00  0.3424E+01
   2.798  0.2739E+00  0.3427E+01
   2.808  0.2835E+00  0.3430E+01
   2.818  0.2933E+00  0.3433E+01
   2.828  0.3030E+00  0.3436E+01
   2.838  0.3125E+00  0.3439E+01
   2.848  0.3215E+00  0.3442E+01
   2.858  0.3299E+00  0.3445E+01
   2.868  0.3374E+00  0.3449E+01
   2.878  0.3439E+00  0.3452E+01
   2.888  0.3491E+00  0.3456E+01
   2.898  0.3530E+00  0.3459E+01
   2.908  0.3553E+00  0.3463E+01
   2.918  0.3561E+00  0.3466E+01
   2.928  0.3552E+00  0.3470E+01
   2.938  0.3526E+00  0.3473E+01
   2.948  0.3485E+00  0.3477E+01
   2.958  0.3427E+00  0.3480E+01
   2.968  0.3356E+00  0.3484E+01
   2.978  0.3271E+00  0.3487E+01
   2.988  0.3175E+00  0.3490E+01
   2.998  0.3069E+00  0.3493E+01
   3.008  0.2956E+00  0.3496E+01
   3.018  0.2837E+00  0.3499E+01
   3.028  0.2715E+00  0.3502E+01
   3.038  0.2590E+00  0.3504E+01
   3.048  0.2466E+00  0.3507E+01
   3.058  0.2343E+00  0.3509E+01
   3.068  0.2224E+00  0.3511E+01
   3.078  0.2109E+00  0.3513E+01
   3.088  0.2000E+00  0.3515E+01
   3.098  0.1898E+00  0.3517E+01
   3.108  0.1804E+00  0.3519E+01
   3.118  0.1718E+00  0.3521E+01
   3.128  0.1641E+00  0.3522E+01
   3.138  0.1573E+00  0.3524E+01
   3.148  0.1515E+00  0.3526E+01
   3.158  0.1467E+00  0.3527E+01
   3.168  0.1428E+00  0.3528E+01
   3.178  0.1400E+00  0.3530E+01
   3.188  0.1382E+00  0.3531E+01
   3.198  0.1374E+00  0.3533E+01
   3.208  0.1376E+00  0.3534E+01
   3.218  0.1388E+00  0.3535E+01
   3.228  0.1409E+00  0.3537E+01
   3.238  0.1440E+00  0.3538E+01
   3.248  0.1481E+00  0.3540E+01
   3.258  0.1530E+00  0.3541E+01
   3.268  0.1588E+00  0.3543E+01
   3.278  0.1654E+00  0.3544E+01
   3.288  0.1727E+00  0.3546E+01
   3.298  0.1808E+00  0.3548E+01
   3.308  0.1895E+00  0.3550E+01
   3.318  0.1989E+00  0.3552E+01
   3.328  0.2087E+00  0.3554E+01
   3.338  0.2190E+00  0.3556E+01
   3.348  0.2297E+00  0.3558E+01
   3.358  0.2408E+00  0.3561E+01
   3.368  0.2521E+00  0.3563E+01
   3.378  0.2636E+00  0.3566E+01
   3.388  0.2753E+00  0.3569E+01
   3.398  0.2871E+00  0.3572E+01
   3.408  0.2991E+00  0.3575E+01
   3.418  0.3112E+00  0.3578E+01
   3.428  0.3236E+00  0.3581E+01
   3.438  0.3362E+00  0.3584E+01
   3.448  0.3492E+00  0.3588E+01
   3.458  0.3626E+00  0.3591E+01
   3.468  0.3766E+00  0.3595E+01
   3.478  0.3912E+00  0.3599E+01
   3.488  0.4068E+00  0.3603E+01
   3.498  0.4233E+00  0.3607E+01
   3.508  0.4410E+00  0.3612E+01
   3.518  0.4600E+00  0.3616E+01
   3.528  0.4806E+00  0.3621E+01
   3.538  0.5028E+00  0.3626E+01
   3.548  0.5269E+00  0.3632E+01
   3.558  0.5530E+00  0.3637E+01
   3.568  0.5814E+00  0.3643E+01
   3.578  0.6121E+00  0.3649E+01
   3.588  0.6455E+00  0.3656E+01
   3.598  0.6816E+00  0.3662E+01
   3.608  0.7208E+00  0.3670E+01
   3.618  0.7633E+00  0.3677E+01
   3.628  0.8094E+00  0.3685E+01
   3.638  0.8592E+00  0.3694E+01
   3.648  0.9130E+00  0.3703E+01
   3.658  0.9712E+00  0.3713E+01
   3.668  0.1034E+01  0.3723E+01
   3.678  0.1102E+01  0.3734E+01
   3.688  0.1174E+01  0.3746E+01
   3.698  0.1253E+01  0.3758E+01
   3.708  0.1336E+01  0.3772E+01
   3.718  0.1425E+01  0.3786E+01
   3.728  0.1520E+01  0.3801E+01
   3.738  0.1620E+01  0.3817E+01
   3.748  0.1725E+01  0.3835E+01
   3.758  0.1836E+01  0.3853E+01
   3.768  0.1952E+01  0.3872E+01
   3.778  0.2071E+01  0.3893E+01
   3.788  0.2195E+01  0.3915E+01
   3.798  0.2321E+01  0.3938E+01
   3.808  0.2449E+01  0.3963E+01
   3.818  0.2578E+01  0.3989E+01
   3.828  0.2707E+01  0.4016E+01
   3.838  0.2835E+01  0.4044E+01
   3.848  0.2961E+01  0.4074E+01
   3.858  0.3083E+01  0.4104E+01
   3.868  0.3199E+01  0.4136E+01
   3.878  0.3310E+01  0.4170E+01
   3.888  0.3413E+01  0.4204E+01
   3.898  0.3508E+01  0.4239E+01
   3.908  0.3594E+01  0.4275E+01
   3.918  0.3670E+01  0.4311E+01
   3.928  0.3735E+01  0.4349E+01
   3.938  0.3789E+01  0.4387E+01
   3.948  0.3833E+01  0.4425E+01
   3.958  0.3865E+01  0.4464E+01
   3.968  0.3887E+01  0.4502E+01
   3.978  0.3899E+01  0.4541E+01
   3.988  0.3902E+01  0.4580E+01
   3.998  0.3896E+01  0.4619E+01
   4.008  0.3882E+01  0.4658E+01
   4.018  0.3860E+01  0.4697E+01
   4.028  0.3833E+01  0.4735E+01
   4.038  0.3800E+01  0.4773E+01
   4.048  0.3762E+01  0.4811E+01
   4.058  0.3721E+01  0.4848E+01
   4.068  0.3677E+01  0.4885E+01
   4.078  0.3630E+01  0.4921E+01
   4.088  0.3582E+01  0.4957E+01
   4.098  0.3532E+01  0.4992E+01
   4.108  0.3481E+01  0.5027E+01
   4.118  0.3429E+01  0.5061E+01
   4.128  0.3378E+01  0.5095E+01
   4.138  0.3326E+01  0.5128E+01
   4.148  0.3275E+01  0.5161E+01
   4.158  0.3224E+01  0.5193E+01
   4.168  0.3174E+01  0.5225E+01
   4.178  0.3125E+01  0.5256E+01
   4.188  0.3077E+01  0.5287E+01
   4.198  0.3030E+01  0.5317E+01
   4.208  0.2984E+01  0.5347E+01
   4.218  0.2940E+01  0.5377E+01
   4.228  0.2897E+01  0.5406E+01
   4.238  0.2855E+01  0.5434E+01
   4.248  0.2815E+01  0.5462E+01
   4.258  0.2776E+01  0.5490E+01
   4.268  0.2738E+01  0.5517E+01
   4.278  0.2701E+01  0.5544E+01
   4.288  0.2665E+01  0.5571E+01
   4.298  0.2630E+01  0.5597E+01
   4.308  0.2595E+01  0.5623E+01
   4.318  0.2561E+01  0.5649E+01
   4.328  0.2528E+01  0.5674E+01
   4.338  0.2496E+01  0.5699E+01
   4.348  0.2464E+01  0.5724E+01
   4.358  0.2432E+01  0.5748E+01
   4.368  0.2402E+01  0.5772E+01
   4.378  0.2372E+01  0.5796E+01
   4.388  0.2344E+01  0.5819E+01
   4.398  0.2316E+01  0.5843E+01
   4.408  0.2291E+01  0.5865E+01
   4.418  0.2267E+01  0.5888E+01
   4.428  0.2245E+01  0.5911E+01
   4.438  0.2224E+01  0.5933E+01
   4.448  0.2206E+01  0.5955E+01
   4.458  0.2190E+01  0.5977E+01
   4.468  0.2177E+01  0.5999E+01
   4.478  0.2165E+01  0.6020E+01
   4.488  0.2156E+01  0.6042E+01
   4.498  0.2149E+01  0.6063E+01
   4.508  0.2143E+01  0.6085E+01
   4.518  0.2139E+01  0.6106E+01
   4.528  0.2137E+01  0.6127E+01
   4.538  0.2135E+01  0.6149E+01
   4.548  0.2134E+01  0.6170E+01
   4.558  0.2134E+01  0.6191E+01
   4.568  0.2134E+01  0.6213E+01
   4.578  0.2134E+01  0.6234E+01
   4.588  0.2133E+01  0.6255E+01
   4.598  0.2133E+01  0.6277E+01
   4.608  0.2132E+01  0.6298E+01
   4.618  0.2130E+01  0.6319E+01
   4.628  0.2128E+01  0.6341E+01
   4.638  0.2126E+01  0.6362E+01
   4.648  0.2124E+01  0.6383E+01
   4.658  0.2122E+01  0.6404E+01
   4.668  0.2121E+01  0.6426E+01
   4.678  0.2120E+01  0.6447E+01
   4.688  0.2120E+01  0.6468E+01
   4.698  0.2121E+01  0.6489E+01
   4.708  0.2124E+01  0.6510E+01
   4.718  0.2128E+01  0.6532E+01
   4.728  0.2134E+01  0.6553E+01
   4.738  0.2141E+01  0.6574E+01
   4.748  0.2151E+01  0.6596E+01
   4.758  0.2162E+01  0.6618E+01
   4.768  0.2176E+01  0.6639E+01
   4.778  0.2191E+01  0.6661E+01
   4.788  0.2209E+01  0.6683E+01
   4.798  0.2228E+01  0.6706E+01
   4.808  0.2249E+01  0.6728E+01
   4.818  0.2273E+01  0.6751E+01
   4.828  0.2298E+01  0.6774E+01
   4.838  0.2325E+01  0.6797E+01
   4.848  0.2354E+01  0.6821E+01
   4.858  0.2385E+01  0.6844E+01
   4.868  0.2418E+01  0.6869E+01
   4.878  0.2452E+01  0.6893E+01
   4.888  0.2489E+01  0.6918E+01
   4.898  0.2527E+01  0.6943E+01
   4.908  0.2567E+01  0.6969E+01
   4.918  0.2610E+01  0.6995E+01
   4.928  0.2654E+01  0.7022E+01
   4.938  0.2700E+01  0.7049E+01
   4.948  0.2749E+01  0.7076E+01
   4.958  0.2799E+01  0.7104E+01
   4.968  0.2852E+01  0.7133E+01
   4.978  0.2907E+01  0.7162E+01
   4.988  0.2963E+01  0.7191E+01
   4.998  0.3022E+01  0.7222E+01
   5.008  0.3082E+01  0.7252E+01
   5.018  0.3143E+01  0.7284E+01
   5.028  0.3206E+01  0.7316E+01
   5.038  0.3269E+01  0.7349E+01
   5.048  0.3333E+01  0.7382E+01
   5.058  0.3396E+01  0.7416E+01
   5.068  0.3459E+01  0.7450E+01
   5.078  0.3520E+01  0.7486E+01
   5.088  0.3578E+01  0.7521E+01
   5.098  0.3635E+01  0.7558E+01
   5.108  0.3687E+01  0.7595E+01
   5.118  0.3736E+01  0.7632E+01
   5.128  0.3779E+01  0.7670E+01
   5.138  0.3817E+01  0.7708E+01
   5.148  0.3849E+01  0.7746E+01
   5.158  0.3874E+01  0.7785E+01
   5.168  0.3892E+01  0.7824E+01
   5.178  0.3902E+01  0.7863E+01
   5.188  0.3904E+01  0.7902E+01
   5.198  0.3898E+01  0.7941E+01
   5.208  0.3884E+01  0.7980E+01
   5.218  0.3861E+01  0.8019E+01
   5.228  0.3830E+01  0.8057E+01
   5.238  0.3792E+01  0.8095E+01
   5.248  0.3746E+01  0.8132E+01
   5.258  0.3694E+01  0.8169E+01
   5.268  0.3635E+01  0.8206E+01
   5.278  0.3571E+01  0.8241E+01
   5.288  0.3502E+01  0.8276E+01
   5.298  0.3429E+01  0.8311E+01
   5.308  0.3353E+01  0.8344E+01
   5.318  0.3275E+01  0.8377E+01
   5.328  0.3195E+01  0.8409E+01
   5.338  0.3114E+01  0.8440E+01
   5.348  0.3032E+01  0.8470E+01
   5.358  0.2952E+01  0.8500E+01
   5.368  0.2872E+01  0.8529E+01
   5.378  0.2794E+01  0.8556E+01
   5.388  0.2717E+01  0.8584E+01
   5.398  0.2643E+01  0.8610E+01
   5.408  0.2572E+01  0.8636E+01
   5.418  0.2504E+01  0.8661E+01
   5.428  0.2439E+01  0.8685E+01
   5.438  0.2377E+01  0.8709E+01
   5.448  0.2319E+01  0.8732E+01
   5.458  0.2264E+01  0.8755E+01
   5.468  0.2213E+01  0.8777E+01
   5.478  0.2165E+01  0.8799E+01
   5.488  0.2120E+01  0.8820E+01
   5.498  0.2079E+01  0.8841E+01
   5.508  0.2041E+01  0.8861E+01
   5.518  0.2005E+01  0.8881E+01
   5.528  0.1973E+01  0.8901E+01
   5.538  0.1944E+01  0.8920E+01
   5.548  0.1916E+01  0.8939E+01
   5.558  0.1892E+01  0.8958E+01
   5.568  0.1869E+01  0.8977E+01
   5.578  0.1849E+01  0.8995E+01
   5.588  0.1830E+01  0.9014E+01
   5.598  0.1813E+01  0.9032E+01
   5.608  0.1798E+01  0.9050E+01
   5.618  0.1784E+01  0.9068E+01
   5.628  0.1771E+01  0.9085E+01
   5.638  0.1760E+01  0.9103E+01
   5.648  0.1750E+01  0.9121E+01
   5.658  0.1741E+01  0.9138E+01
   5.668  0.1733E+01  0.9155E+01
   5.678  0.1726E+01  0.9173E+01
   5.688  0.1720E+01  0.9190E+01
   5.698  0.1716E+01  0.9207E+01
   5.708  0.1713E+01  0.9224E+01
   5.718  0.1711E+01  0.9241E+01
   5.728  0.1711E+01  0.9258E+01
   5.738  0.1712E+01  0.9275E+01
   5.748  0.1714E+01  0.9293E+01
   5.758  0.1718E+01  0.9310E+01
   5.768  0.1723E+01  0.9327E+01
   5.778  0.1730E+01  0.9344E+01
   5.788  0.1738E+01  0.9362E+01
   5.798  0.1746E+01  0.9379E+01
   5.808  0.1755E+01  0.9397E+01
   5.818  0.1764E+01  0.9414E+01
   5.828  0.1774E+01  0.9432E+01
   5.838  0.1782E+01  0.9450E+01
   5.848  0.1791E+01  0.9468E+01
   5.858  0.1798E+01  0.9486E+01
   5.868  0.1803E+01  0.9504E+01
   5.878  0.1806E+01  0.9522E+01
   5.888  0.1807E+01  0.9540E+01
   5.898  0.1806E+01  0.9558E+01
   5.908  0.1801E+01  0.9576E+01
   5.918  0.1793E+01  0.9594E+01
   5.928  0.1781E+01  0.9612E+01
   5.938  0.1766E+01  0.9629E+01
   5.948  0.1746E+01  0.9647E+01
   5.958  0.1723E+01  0.9664E+01
   5.968  0.1695E+01  0.9681E+01
   5.978  0.1663E+01  0.9698E+01
   5.988  0.1627E+01  0.9714E+01
   5.998  0.1587E+01  0.9730E+01
   6.008  0.1543E+01  0.9745E+01
   6.018  0.1496E+01  0.9760E+01
   6.028  0.1445E+01  0.9775E+01
   6.038  0.1392E+01  0.9788E+01
   6.048  0.1336E+01  0.9802E+01
   6.058  0.1278E+01  0.9815E+01
   6.068  0.1219E+01  0.9827E+01
   6.078  0.1159E+01  0.9838E+01
   6.088  0.1098E+01  0.9849E+01
   6.098  0.1037E+01  0.9860E+01
   6.108  0.9765E+00  0.9870E+01
   6.118  0.9168E+00  0.9879E+01
   6.128  0.8582E+00  0.9887E+01
   6.138  0.8011E+00  0.9895E+01
   6.148  0.7458E+00  0.9903E+01
   6.158  0.6926E+00  0.9910E+01
   6.168  0.6416E+00  0.9916E+01
   6.178  0.5931E+00  0.9922E+01
   6.188  0.5470E+00  0.9927E+01
   6.198  0.5035E+00  0.9933E+01
   6.208  0.4626E+00  0.9937E+01
   6.218  0.4243E+00  0.9941E+01
   6.228  0.3886E+00  0.9945E+01
   6.238  0.3553E+00  0.9949E+01
   6.248  0.3244E+00  0.9952E+01
   6.258  0.2959E+00  0.9955E+01
   6.268  0.2695E+00  0.9958E+01
   6.278  0.2452E+00  0.9960E+01
   6.288  0.2229E+00  0.9962E+01
   6.298  0.2025E+00  0.9964E+01
   6.308  0.1837E+00  0.9966E+01
   6.318  0.1666E+00  0.9968E+01
   6.328  0.1510E+00  0.9969E+01
   6.338  0.1367E+00  0.9971E+01
   6.348  0.1238E+00  0.9972E+01
   6.358  0.1120E+00  0.9973E+01
   6.368  0.1012E+00  0.9974E+01
   6.378  0.9151E-01  0.9975E+01
   6.388  0.8268E-01  0.9976E+01
   6.398  0.7468E-01  0.9977E+01
   6.408  0.6743E-01  0.9977E+01
   6.418  0.6087E-01  0.9978E+01
   6.428  0.5493E-01  0.9978E+01
   6.438  0.4957E-01  0.9979E+01
   6.448  0.4471E-01  0.9979E+01
   6.458  0.4033E-01  0.9980E+01
   6.468  0.3636E-01  0.9980E+01
   6.478  0.3279E-01  0.9981E+01
   6.488  0.2956E-01  0.9981E+01
   6.498  0.2665E-01  0.9981E+01
   6.508  0.2402E-01  0.9981E+01
   6.518  0.2165E-01  0.9982E+01
   6.528  0.1951E-01  0.9982E+01
   6.538  0.1758E-01  0.9982E+01
   6.548  0.1584E-01  0.9982E+01
   6.558  0.1428E-01  0.9982E+01
   6.568  0.1287E-01  0.9982E+01
   6.578  0.1160E-01  0.9982E+01
   6.588  0.1045E-01  0.9983E+01
   6.598  0.9423E-02  0.9983E+01
   6.608  0.8495E-02  0.9983E+01
   6.618  0.7661E-02  0.9983E+01
   6.628  0.6910E-02  0.9983E+01
   6.638  0.6234E-02  0.9983E+01
   6.648  0.5627E-02  0.9983E+01
   6.658  0.5082E-02  0.9983E+01
   6.668  0.4592E-02  0.9983E+01
   6.678  0.4153E-02  0.9983E+01
   6.688  0.3760E-02  0.9983E+01
   6.698  0.3407E-02  0.9983E+01
   6.708  0.3093E-02  0.9983E+01
   6.718  0.2812E-02  0.9983E+01
   6.728  0.2562E-02  0.9983E+01
   6.738  0.2340E-02  0.9983E+01
   6.748  0.2145E-02  0.9983E+01
   6.758  0.1972E-02  0.9983E+01
   6.768  0.1822E-02  0.9983E+01
   6.778  0.1691E-02  0.9983E+01
   6.788  0.1580E-02  0.9983E+01
   6.798  0.1485E-02  0.9983E+01
   6.808  0.1407E-02  0.9983E+01
   6.818  0.1345E-02  0.9983E+01
   6.828  0.1297E-02  0.9983E+01
   6.838  0.1264E-02  0.9983E+01
   6.848  0.1244E-02  0.9984E+01
   6.858  0.1238E-02  0.9984E+01
   6.868  0.1246E-02  0.9984E+01
   6.878  0.1268E-02  0.9984E+01
   6.888  0.1304E-02  0.9984E+01
   6.898  0.1354E-02  0.9984E+01
   6.908  0.1419E-02  0.9984E+01
   6.918  0.1499E-02  0.9984E+01
   6.928  0.1597E-02  0.9984E+01
   6.938  0.1711E-02  0.9984E+01
   6.948  0.1845E-02  0.9984E+01
   6.958  0.1999E-02  0.9984E+01
   6.968  0.2175E-02  0.9984E+01
   6.978  0.2375E-02  0.9984E+01
   6.988  0.2601E-02  0.9984E+01
   6.998  0.2856E-02  0.9984E+01
   7.008  0.3142E-02  0.9984E+01
   7.018  0.3463E-02  0.9984E+01
   7.028  0.3822E-02  0.9984E+01
   7.038  0.4223E-02  0.9984E+01
   7.048  0.4671E-02  0.9984E+01
   7.058  0.5170E-02  0.9984E+01
   7.068  0.5725E-02  0.9984E+01
   7.078  0.6344E-02  0.9984E+01
   7.088  0.7033E-02  0.9984E+01
   7.098  0.7798E-02  0.9984E+01
   7.108  0.8650E-02  0.9984E+01
   7.118  0.9596E-02  0.9984E+01
   7.128  0.1065E-01  0.9985E+01
   7.138  0.1182E-01  0.9985E+01
   7.148  0.1311E-01  0.9985E+01
   7.158  0.1455E-01  0.9985E+01
   7.168  0.1615E-01  0.9985E+01
   7.178  0.1793E-01  0.9985E+01
   7.188  0.1990E-01  0.9986E+01
   7.198  0.2209E-01  0.9986E+01
   7.208  0.2452E-01  0.9986E+01
   7.218  0.2722E-01  0.9986E+01
   7.228  0.3021E-01  0.9987E+01
   7.238  0.3353E-01  0.9987E+01
   7.248  0.3720E-01  0.9987E+01
   7.258  0.4128E-01  0.9988E+01
   7.268  0.4581E-01  0.9988E+01
   7.278  0.5082E-01  0.9989E+01
   7.288  0.5638E-01  0.9989E+01
   7.298  0.6254E-01  0.9990E+01
   7.308  0.6935E-01  0.9991E+01
   7.318  0.7690E-01  0.9991E+01
   7.328  0.8526E-01  0.9992E+01
   7.338  0.9451E-01  0.9993E+01
   7.348  0.1047E+00  0.9994E+01
   7.358  0.1160E+00  0.9995E+01
   7.368  0.1285E+00  0.9997E+01
   7.378  0.1423E+00  0.9998E+01
   7.388  0.1575E+00  0.1000E+02
   7.398  0.1743E+00  0.1000E+02
   7.408  0.1928E+00  0.1000E+02
   7.418  0.2132E+00  0.1001E+02
   7.428  0.2356E+00  0.1001E+02
   7.438  0.2602E+00  0.1001E+02
   7.448  0.2872E+00  0.1001E+02
   7.458  0.3167E+00  0.1002E+02
   7.468  0.3491E+00  0.1002E+02
   7.478  0.3845E+00  0.1002E+02
   7.488  0.4232E+00  0.1003E+02
   7.498  0.4652E+00  0.1003E+02
   7.508  0.5109E+00  0.1004E+02
   7.518  0.5604E+00  0.1004E+02
   7.528  0.6140E+00  0.1005E+02
   7.538  0.6718E+00  0.1006E+02
   7.548  0.7340E+00  0.1006E+02
   7.558  0.8007E+00  0.1007E+02
   7.568  0.8719E+00  0.1008E+02
   7.578  0.9476E+00  0.1009E+02
   7.588  0.1028E+01  0.1010E+02
   7.598  0.1113E+01  0.1011E+02
   7.608  0.1202E+01  0.1012E+02
   7.618  0.1295E+01  0.1014E+02
   7.628  0.1391E+01  0.1015E+02
   7.638  0.1491E+01  0.1016E+02
   7.648  0.1593E+01  0.1018E+02
   7.658  0.1698E+01  0.1020E+02
   7.668  0.1803E+01  0.1022E+02
   7.678  0.1909E+01  0.1023E+02
   7.688  0.2015E+01  0.1026E+02
   7.698  0.2119E+01  0.1028E+02
   7.708  0.2221E+01  0.1030E+02
   7.718  0.2319E+01  0.1032E+02
   7.728  0.2413E+01  0.1035E+02
   7.738  0.2503E+01  0.1037E+02
   7.748  0.2586E+01  0.1040E+02
   7.758  0.2663E+01  0.1042E+02
   7.768  0.2732E+01  0.1045E+02
   7.778  0.2795E+01  0.1048E+02
   7.788  0.2849E+01  0.1051E+02
   7.798  0.2895E+01  0.1054E+02
   7.808  0.2934E+01  0.1057E+02
   7.818  0.2964E+01  0.1060E+02
   7.828  0.2987E+01  0.1062E+02
   7.838  0.3002E+01  0.1065E+02
   7.848  0.3011E+01  0.1069E+02
   7.858  0.3013E+01  0.1072E+02
   7.868  0.3009E+01  0.1075E+02
   7.878  0.2999E+01  0.1078E+02
   7.888  0.2985E+01  0.1081E+02
   7.898  0.2966E+01  0.1083E+02
   7.908  0.2944E+01  0.1086E+02
   7.918  0.2918E+01  0.1089E+02
   7.928  0.2890E+01  0.1092E+02
   7.938  0.2859E+01  0.1095E+02
   7.948  0.2826E+01  0.1098E+02
   7.958  0.2791E+01  0.1101E+02
   7.968  0.2756E+01  0.1103E+02
   7.978  0.2720E+01  0.1106E+02
   7.988  0.2683E+01  0.1109E+02
   7.998  0.2646E+01  0.1112E+02
   8.008  0.2609E+01  0.1114E+02
   8.018  0.2572E+01  0.1117E+02
